# Silicon Calculated X-ray Diffraction
# 2theta  Intensity
1.00000	0.00000
1.01000	0.16240
1.02000	0.15931
1.03000	0.15630
1.04000	0.15338
1.05000	0.15054
1.06000	0.14779
1.07000	0.14510
1.08000	0.14250
1.09000	0.13996
1.10000	0.13749
1.11000	0.13509
1.12000	0.13275
1.13000	0.13047
1.14000	0.12825
1.15000	0.12609
1.16000	0.12398
1.17000	0.12193
1.18000	0.11993
1.19000	0.11798
1.20000	0.11608
1.21000	0.11422
1.22000	0.11241
1.23000	0.11064
1.24000	0.10891
1.25000	0.10723
1.26000	0.10558
1.27000	0.10397
1.28000	0.10240
1.29000	0.10087
1.30000	0.09937
1.31000	0.09791
1.32000	0.09647
1.33000	0.09507
1.34000	0.09370
1.35000	0.09237
1.36000	0.09105
1.37000	0.08977
1.38000	0.08852
1.39000	0.08729
1.40000	0.08609
1.41000	0.08491
1.42000	0.08376
1.43000	0.08263
1.44000	0.08153
1.45000	0.08044
1.46000	0.07938
1.47000	0.07834
1.48000	0.07733
1.49000	0.07633
1.50000	0.07535
1.51000	0.07439
1.52000	0.07345
1.53000	0.07253
1.54000	0.07162
1.55000	0.07073
1.56000	0.06986
1.57000	0.06901
1.58000	0.06817
1.59000	0.06735
1.60000	0.06654
1.61000	0.06575
1.62000	0.06497
1.63000	0.06421
1.64000	0.06346
1.65000	0.06272
1.66000	0.06199
1.67000	0.06128
1.68000	0.06059
1.69000	0.05990
1.70000	0.05922
1.71000	0.05856
1.72000	0.05791
1.73000	0.05727
1.74000	0.05664
1.75000	0.05602
1.76000	0.05541
1.77000	0.05482
1.78000	0.05423
1.79000	0.05365
1.80000	0.05308
1.81000	0.05252
1.82000	0.05197
1.83000	0.05143
1.84000	0.05090
1.85000	0.05037
1.86000	0.04985
1.87000	0.04935
1.88000	0.04885
1.89000	0.04835
1.90000	0.04787
1.91000	0.04739
1.92000	0.04692
1.93000	0.04646
1.94000	0.04600
1.95000	0.04556
1.96000	0.04511
1.97000	0.04468
1.98000	0.04425
1.99000	0.04383
2.00000	0.04341
2.01000	0.04300
2.02000	0.04260
2.03000	0.04220
2.04000	0.04181
2.05000	0.04142
2.06000	0.04104
2.07000	0.04066
2.08000	0.04029
2.09000	0.03993
2.10000	0.03957
2.11000	0.03921
2.12000	0.03886
2.13000	0.03851
2.14000	0.03817
2.15000	0.03784
2.16000	0.03751
2.17000	0.03718
2.18000	0.03686
2.19000	0.03654
2.20000	0.03623
2.21000	0.03592
2.22000	0.03561
2.23000	0.03531
2.24000	0.03501
2.25000	0.03472
2.26000	0.03443
2.27000	0.03414
2.28000	0.03386
2.29000	0.03358
2.30000	0.03331
2.31000	0.03303
2.32000	0.03277
2.33000	0.03250
2.34000	0.03224
2.35000	0.03198
2.36000	0.03173
2.37000	0.03147
2.38000	0.03123
2.39000	0.03098
2.40000	0.03074
2.41000	0.03050
2.42000	0.03026
2.43000	0.03003
2.44000	0.02980
2.45000	0.02957
2.46000	0.02934
2.47000	0.02912
2.48000	0.02890
2.49000	0.02868
2.50000	0.02847
2.51000	0.02825
2.52000	0.02804
2.53000	0.02784
2.54000	0.02763
2.55000	0.02743
2.56000	0.02723
2.57000	0.02703
2.58000	0.02683
2.59000	0.02664
2.60000	0.02645
2.61000	0.02626
2.62000	0.02607
2.63000	0.02589
2.64000	0.02570
2.65000	0.02552
2.66000	0.02534
2.67000	0.02517
2.68000	0.02499
2.69000	0.02482
2.70000	0.02465
2.71000	0.02448
2.72000	0.02431
2.73000	0.02414
2.74000	0.02398
2.75000	0.02382
2.76000	0.02366
2.77000	0.02350
2.78000	0.02334
2.79000	0.02319
2.80000	0.02303
2.81000	0.02288
2.82000	0.02273
2.83000	0.02258
2.84000	0.02243
2.85000	0.02229
2.86000	0.02214
2.87000	0.02200
2.88000	0.02186
2.89000	0.02172
2.90000	0.02158
2.91000	0.02144
2.92000	0.02130
2.93000	0.02117
2.94000	0.02104
2.95000	0.02090
2.96000	0.02077
2.97000	0.02064
2.98000	0.02052
2.99000	0.02039
3.00000	0.02026
3.01000	0.02014
3.02000	0.02002
3.03000	0.01989
3.04000	0.01977
3.05000	0.01965
3.06000	0.01953
3.07000	0.01942
3.08000	0.01930
3.09000	0.01919
3.10000	0.01907
3.11000	0.01896
3.12000	0.01885
3.13000	0.01874
3.14000	0.01863
3.15000	0.01852
3.16000	0.01841
3.17000	0.01830
3.18000	0.01820
3.19000	0.01809
3.20000	0.01799
3.21000	0.01789
3.22000	0.01778
3.23000	0.01768
3.24000	0.01758
3.25000	0.01748
3.26000	0.01738
3.27000	0.01729
3.28000	0.01719
3.29000	0.01709
3.30000	0.01700
3.31000	0.01691
3.32000	0.01681
3.33000	0.01672
3.34000	0.01663
3.35000	0.01654
3.36000	0.01645
3.37000	0.01636
3.38000	0.01627
3.39000	0.01618
3.40000	0.01610
3.41000	0.01601
3.42000	0.01592
3.43000	0.01584
3.44000	0.01576
3.45000	0.01567
3.46000	0.01559
3.47000	0.01551
3.48000	0.01543
3.49000	0.01535
3.50000	0.01527
3.51000	0.01519
3.52000	0.01511
3.53000	0.01503
3.54000	0.01495
3.55000	0.01488
3.56000	0.01480
3.57000	0.01473
3.58000	0.01465
3.59000	0.01458
3.60000	0.01450
3.61000	0.01443
3.62000	0.01436
3.63000	0.01429
3.64000	0.01422
3.65000	0.01414
3.66000	0.01407
3.67000	0.01401
3.68000	0.01394
3.69000	0.01387
3.70000	0.01380
3.71000	0.01373
3.72000	0.01367
3.73000	0.01360
3.74000	0.01353
3.75000	0.01347
3.76000	0.01340
3.77000	0.01334
3.78000	0.01328
3.79000	0.01321
3.80000	0.01315
3.81000	0.01309
3.82000	0.01303
3.83000	0.01297
3.84000	0.01290
3.85000	0.01284
3.86000	0.01278
3.87000	0.01272
3.88000	0.01267
3.89000	0.01261
3.90000	0.01255
3.91000	0.01249
3.92000	0.01243
3.93000	0.01238
3.94000	0.01232
3.95000	0.01226
3.96000	0.01221
3.97000	0.01215
3.98000	0.01210
3.99000	0.01204
4.00000	0.01199
4.01000	0.01194
4.02000	0.01188
4.03000	0.01183
4.04000	0.01178
4.05000	0.01173
4.06000	0.01168
4.07000	0.01162
4.08000	0.01157
4.09000	0.01152
4.10000	0.01147
4.11000	0.01142
4.12000	0.01137
4.13000	0.01132
4.14000	0.01128
4.15000	0.01123
4.16000	0.01118
4.17000	0.01113
4.18000	0.01108
4.19000	0.01104
4.20000	0.01099
4.21000	0.01094
4.22000	0.01090
4.23000	0.01085
4.24000	0.01081
4.25000	0.01076
4.26000	0.01072
4.27000	0.01067
4.28000	0.01063
4.29000	0.01058
4.30000	0.01054
4.31000	0.01050
4.32000	0.01045
4.33000	0.01041
4.34000	0.01037
4.35000	0.01033
4.36000	0.01028
4.37000	0.01024
4.38000	0.01020
4.39000	0.01016
4.40000	0.01012
4.41000	0.01008
4.42000	0.01004
4.43000	0.01000
4.44000	0.00996
4.45000	0.00992
4.46000	0.00988
4.47000	0.00984
4.48000	0.00980
4.49000	0.00976
4.50000	0.00972
4.51000	0.00969
4.52000	0.00965
4.53000	0.00961
4.54000	0.00957
4.55000	0.00954
4.56000	0.00950
4.57000	0.00946
4.58000	0.00943
4.59000	0.00939
4.60000	0.00936
4.61000	0.00932
4.62000	0.00928
4.63000	0.00925
4.64000	0.00921
4.65000	0.00918
4.66000	0.00914
4.67000	0.00911
4.68000	0.00908
4.69000	0.00904
4.70000	0.00901
4.71000	0.00898
4.72000	0.00894
4.73000	0.00891
4.74000	0.00888
4.75000	0.00884
4.76000	0.00881
4.77000	0.00878
4.78000	0.00875
4.79000	0.00872
4.80000	0.00868
4.81000	0.00865
4.82000	0.00862
4.83000	0.00859
4.84000	0.00856
4.85000	0.00853
4.86000	0.00850
4.87000	0.00847
4.88000	0.00844
4.89000	0.00841
4.90000	0.00838
4.91000	0.00835
4.92000	0.00832
4.93000	0.00829
4.94000	0.00826
4.95000	0.00823
4.96000	0.00820
4.97000	0.00817
4.98000	0.00814
4.99000	0.00812
5.00000	0.00809
5.01000	0.00806
5.02000	0.00803
5.03000	0.00801
5.04000	0.00798
5.05000	0.00795
5.06000	0.00792
5.07000	0.00790
5.08000	0.00787
5.09000	0.00784
5.10000	0.00782
5.11000	0.00779
5.12000	0.00776
5.13000	0.00774
5.14000	0.00771
5.15000	0.00769
5.16000	0.00766
5.17000	0.00763
5.18000	0.00761
5.19000	0.00758
5.20000	0.00756
5.21000	0.00753
5.22000	0.00751
5.23000	0.00748
5.24000	0.00746
5.25000	0.00744
5.26000	0.00741
5.27000	0.00739
5.28000	0.00736
5.29000	0.00734
5.30000	0.00732
5.31000	0.00729
5.32000	0.00727
5.33000	0.00725
5.34000	0.00722
5.35000	0.00720
5.36000	0.00718
5.37000	0.00715
5.38000	0.00713
5.39000	0.00711
5.40000	0.00709
5.41000	0.00706
5.42000	0.00704
5.43000	0.00702
5.44000	0.00700
5.45000	0.00698
5.46000	0.00695
5.47000	0.00693
5.48000	0.00691
5.49000	0.00689
5.50000	0.00687
5.51000	0.00685
5.52000	0.00683
5.53000	0.00680
5.54000	0.00678
5.55000	0.00676
5.56000	0.00674
5.57000	0.00672
5.58000	0.00670
5.59000	0.00668
5.60000	0.00666
5.61000	0.00664
5.62000	0.00662
5.63000	0.00660
5.64000	0.00658
5.65000	0.00656
5.66000	0.00654
5.67000	0.00652
5.68000	0.00650
5.69000	0.00648
5.70000	0.00646
5.71000	0.00645
5.72000	0.00643
5.73000	0.00641
5.74000	0.00639
5.75000	0.00637
5.76000	0.00635
5.77000	0.00633
5.78000	0.00632
5.79000	0.00630
5.80000	0.00628
5.81000	0.00626
5.82000	0.00624
5.83000	0.00622
5.84000	0.00621
5.85000	0.00619
5.86000	0.00617
5.87000	0.00615
5.88000	0.00614
5.89000	0.00612
5.90000	0.00610
5.91000	0.00608
5.92000	0.00607
5.93000	0.00605
5.94000	0.00603
5.95000	0.00602
5.96000	0.00600
5.97000	0.00598
5.98000	0.00597
5.99000	0.00595
6.00000	0.00593
6.01000	0.00592
6.02000	0.00590
6.03000	0.00588
6.04000	0.00587
6.05000	0.00585
6.06000	0.00583
6.07000	0.00582
6.08000	0.00580
6.09000	0.00579
6.10000	0.00577
6.11000	0.00576
6.12000	0.00574
6.13000	0.00572
6.14000	0.00571
6.15000	0.00569
6.16000	0.00568
6.17000	0.00566
6.18000	0.00565
6.19000	0.00563
6.20000	0.00562
6.21000	0.00560
6.22000	0.00559
6.23000	0.00557
6.24000	0.00556
6.25000	0.00554
6.26000	0.00553
6.27000	0.00552
6.28000	0.00550
6.29000	0.00549
6.30000	0.00547
6.31000	0.00546
6.32000	0.00544
6.33000	0.00543
6.34000	0.00542
6.35000	0.00540
6.36000	0.00539
6.37000	0.00537
6.38000	0.00536
6.39000	0.00535
6.40000	0.00533
6.41000	0.00532
6.42000	0.00531
6.43000	0.00529
6.44000	0.00528
6.45000	0.00527
6.46000	0.00525
6.47000	0.00524
6.48000	0.00523
6.49000	0.00521
6.50000	0.00520
6.51000	0.00519
6.52000	0.00517
6.53000	0.00516
6.54000	0.00515
6.55000	0.00513
6.56000	0.00512
6.57000	0.00511
6.58000	0.00510
6.59000	0.00508
6.60000	0.00507
6.61000	0.00506
6.62000	0.00505
6.63000	0.00503
6.64000	0.00502
6.65000	0.00501
6.66000	0.00500
6.67000	0.00499
6.68000	0.00497
6.69000	0.00496
6.70000	0.00495
6.71000	0.00494
6.72000	0.00493
6.73000	0.00491
6.74000	0.00490
6.75000	0.00489
6.76000	0.00488
6.77000	0.00487
6.78000	0.00486
6.79000	0.00484
6.80000	0.00483
6.81000	0.00482
6.82000	0.00481
6.83000	0.00480
6.84000	0.00479
6.85000	0.00478
6.86000	0.00477
6.87000	0.00475
6.88000	0.00474
6.89000	0.00473
6.90000	0.00472
6.91000	0.00471
6.92000	0.00470
6.93000	0.00469
6.94000	0.00468
6.95000	0.00467
6.96000	0.00466
6.97000	0.00465
6.98000	0.00463
6.99000	0.00462
7.00000	0.00461
7.01000	0.00460
7.02000	0.00459
7.03000	0.00458
7.04000	0.00457
7.05000	0.00456
7.06000	0.00455
7.07000	0.00454
7.08000	0.00453
7.09000	0.00452
7.10000	0.00451
7.11000	0.00450
7.12000	0.00449
7.13000	0.00448
7.14000	0.00447
7.15000	0.00446
7.16000	0.00445
7.17000	0.00444
7.18000	0.00443
7.19000	0.00442
7.20000	0.00441
7.21000	0.00440
7.22000	0.00439
7.23000	0.00438
7.24000	0.00437
7.25000	0.00436
7.26000	0.00435
7.27000	0.00435
7.28000	0.00434
7.29000	0.00433
7.30000	0.00432
7.31000	0.00431
7.32000	0.00430
7.33000	0.00429
7.34000	0.00428
7.35000	0.00427
7.36000	0.00426
7.37000	0.00425
7.38000	0.00424
7.39000	0.00424
7.40000	0.00423
7.41000	0.00422
7.42000	0.00421
7.43000	0.00420
7.44000	0.00419
7.45000	0.00418
7.46000	0.00417
7.47000	0.00416
7.48000	0.00416
7.49000	0.00415
7.50000	0.00414
7.51000	0.00413
7.52000	0.00412
7.53000	0.00411
7.54000	0.00411
7.55000	0.00410
7.56000	0.00409
7.57000	0.00408
7.58000	0.00407
7.59000	0.00406
7.60000	0.00405
7.61000	0.00405
7.62000	0.00404
7.63000	0.00403
7.64000	0.00402
7.65000	0.00401
7.66000	0.00401
7.67000	0.00400
7.68000	0.00399
7.69000	0.00398
7.70000	0.00397
7.71000	0.00397
7.72000	0.00396
7.73000	0.00395
7.74000	0.00394
7.75000	0.00393
7.76000	0.00393
7.77000	0.00392
7.78000	0.00391
7.79000	0.00390
7.80000	0.00390
7.81000	0.00389
7.82000	0.00388
7.83000	0.00387
7.84000	0.00387
7.85000	0.00386
7.86000	0.00385
7.87000	0.00384
7.88000	0.00384
7.89000	0.00383
7.90000	0.00382
7.91000	0.00381
7.92000	0.00381
7.93000	0.00380
7.94000	0.00379
7.95000	0.00378
7.96000	0.00378
7.97000	0.00377
7.98000	0.00376
7.99000	0.00376
8.00000	0.00375
8.01000	0.00374
8.02000	0.00373
8.03000	0.00373
8.04000	0.00372
8.05000	0.00371
8.06000	0.00371
8.07000	0.00370
8.08000	0.00369
8.09000	0.00369
8.10000	0.00368
8.11000	0.00367
8.12000	0.00367
8.13000	0.00366
8.14000	0.00365
8.15000	0.00365
8.16000	0.00364
8.17000	0.00363
8.18000	0.00363
8.19000	0.00362
8.20000	0.00361
8.21000	0.00361
8.22000	0.00360
8.23000	0.00359
8.24000	0.00359
8.25000	0.00358
8.26000	0.00357
8.27000	0.00357
8.28000	0.00356
8.29000	0.00355
8.30000	0.00355
8.31000	0.00354
8.32000	0.00353
8.33000	0.00353
8.34000	0.00352
8.35000	0.00352
8.36000	0.00351
8.37000	0.00350
8.38000	0.00350
8.39000	0.00349
8.40000	0.00349
8.41000	0.00348
8.42000	0.00347
8.43000	0.00347
8.44000	0.00346
8.45000	0.00345
8.46000	0.00345
8.47000	0.00344
8.48000	0.00344
8.49000	0.00343
8.50000	0.00342
8.51000	0.00342
8.52000	0.00341
8.53000	0.00341
8.54000	0.00340
8.55000	0.00340
8.56000	0.00339
8.57000	0.00338
8.58000	0.00338
8.59000	0.00337
8.60000	0.00337
8.61000	0.00336
8.62000	0.00336
8.63000	0.00335
8.64000	0.00334
8.65000	0.00334
8.66000	0.00333
8.67000	0.00333
8.68000	0.00332
8.69000	0.00332
8.70000	0.00331
8.71000	0.00330
8.72000	0.00330
8.73000	0.00329
8.74000	0.00329
8.75000	0.00328
8.76000	0.00328
8.77000	0.00327
8.78000	0.00327
8.79000	0.00326
8.80000	0.00326
8.81000	0.00325
8.82000	0.00325
8.83000	0.00324
8.84000	0.00323
8.85000	0.00323
8.86000	0.00322
8.87000	0.00322
8.88000	0.00321
8.89000	0.00321
8.90000	0.00320
8.91000	0.00320
8.92000	0.00319
8.93000	0.00319
8.94000	0.00318
8.95000	0.00318
8.96000	0.00317
8.97000	0.00317
8.98000	0.00316
8.99000	0.00316
9.00000	0.00315
9.01000	0.00315
9.02000	0.00314
9.03000	0.00314
9.04000	0.00313
9.05000	0.00313
9.06000	0.00312
9.07000	0.00312
9.08000	0.00311
9.09000	0.00311
9.10000	0.00310
9.11000	0.00310
9.12000	0.00309
9.13000	0.00309
9.14000	0.00308
9.15000	0.00308
9.16000	0.00308
9.17000	0.00307
9.18000	0.00307
9.19000	0.00306
9.20000	0.00306
9.21000	0.00305
9.22000	0.00305
9.23000	0.00304
9.24000	0.00304
9.25000	0.00303
9.26000	0.00303
9.27000	0.00302
9.28000	0.00302
9.29000	0.00301
9.30000	0.00301
9.31000	0.00301
9.32000	0.00300
9.33000	0.00300
9.34000	0.00299
9.35000	0.00299
9.36000	0.00298
9.37000	0.00298
9.38000	0.00297
9.39000	0.00297
9.40000	0.00297
9.41000	0.00296
9.42000	0.00296
9.43000	0.00295
9.44000	0.00295
9.45000	0.00294
9.46000	0.00294
9.47000	0.00294
9.48000	0.00293
9.49000	0.00293
9.50000	0.00292
9.51000	0.00292
9.52000	0.00291
9.53000	0.00291
9.54000	0.00291
9.55000	0.00290
9.56000	0.00290
9.57000	0.00289
9.58000	0.00289
9.59000	0.00289
9.60000	0.00288
9.61000	0.00288
9.62000	0.00287
9.63000	0.00287
9.64000	0.00286
9.65000	0.00286
9.66000	0.00286
9.67000	0.00285
9.68000	0.00285
9.69000	0.00284
9.70000	0.00284
9.71000	0.00284
9.72000	0.00283
9.73000	0.00283
9.74000	0.00283
9.75000	0.00282
9.76000	0.00282
9.77000	0.00281
9.78000	0.00281
9.79000	0.00281
9.80000	0.00280
9.81000	0.00280
9.82000	0.00279
9.83000	0.00279
9.84000	0.00279
9.85000	0.00278
9.86000	0.00278
9.87000	0.00278
9.88000	0.00277
9.89000	0.00277
9.90000	0.00276
9.91000	0.00276
9.92000	0.00276
9.93000	0.00275
9.94000	0.00275
9.95000	0.00275
9.96000	0.00274
9.97000	0.00274
9.98000	0.00273
9.99000	0.00273
10.00000	0.00273
10.01000	0.00272
10.02000	0.00272
10.03000	0.00272
10.04000	0.00271
10.05000	0.00271
10.06000	0.00271
10.07000	0.00270
10.08000	0.00270
10.09000	0.00270
10.10000	0.00269
10.11000	0.00269
10.12000	0.00268
10.13000	0.00268
10.14000	0.00268
10.15000	0.00267
10.16000	0.00267
10.17000	0.00267
10.18000	0.00266
10.19000	0.00266
10.20000	0.00266
10.21000	0.00265
10.22000	0.00265
10.23000	0.00265
10.24000	0.00264
10.25000	0.00264
10.26000	0.00264
10.27000	0.00263
10.28000	0.00263
10.29000	0.00263
10.30000	0.00262
10.31000	0.00262
10.32000	0.00262
10.33000	0.00261
10.34000	0.00261
10.35000	0.00261
10.36000	0.00260
10.37000	0.00260
10.38000	0.00260
10.39000	0.00259
10.40000	0.00259
10.41000	0.00259
10.42000	0.00258
10.43000	0.00258
10.44000	0.00258
10.45000	0.00258
10.46000	0.00257
10.47000	0.00257
10.48000	0.00257
10.49000	0.00256
10.50000	0.00256
10.51000	0.00256
10.52000	0.00255
10.53000	0.00255
10.54000	0.00255
10.55000	0.00254
10.56000	0.00254
10.57000	0.00254
10.58000	0.00254
10.59000	0.00253
10.60000	0.00253
10.61000	0.00253
10.62000	0.00252
10.63000	0.00252
10.64000	0.00252
10.65000	0.00251
10.66000	0.00251
10.67000	0.00251
10.68000	0.00251
10.69000	0.00250
10.70000	0.00250
10.71000	0.00250
10.72000	0.00249
10.73000	0.00249
10.74000	0.00249
10.75000	0.00249
10.76000	0.00248
10.77000	0.00248
10.78000	0.00248
10.79000	0.00247
10.80000	0.00247
10.81000	0.00247
10.82000	0.00247
10.83000	0.00246
10.84000	0.00246
10.85000	0.00246
10.86000	0.00245
10.87000	0.00245
10.88000	0.00245
10.89000	0.00245
10.90000	0.00244
10.91000	0.00244
10.92000	0.00244
10.93000	0.00243
10.94000	0.00243
10.95000	0.00243
10.96000	0.00243
10.97000	0.00242
10.98000	0.00242
10.99000	0.00242
11.00000	0.00242
11.01000	0.00241
11.02000	0.00241
11.03000	0.00241
11.04000	0.00241
11.05000	0.00240
11.06000	0.00240
11.07000	0.00240
11.08000	0.00239
11.09000	0.00239
11.10000	0.00239
11.11000	0.00239
11.12000	0.00238
11.13000	0.00238
11.14000	0.00238
11.15000	0.00238
11.16000	0.00237
11.17000	0.00237
11.18000	0.00237
11.19000	0.00237
11.20000	0.00236
11.21000	0.00236
11.22000	0.00236
11.23000	0.00236
11.24000	0.00235
11.25000	0.00235
11.26000	0.00235
11.27000	0.00235
11.28000	0.00234
11.29000	0.00234
11.30000	0.00234
11.31000	0.00234
11.32000	0.00233
11.33000	0.00233
11.34000	0.00233
11.35000	0.00233
11.36000	0.00232
11.37000	0.00232
11.38000	0.00232
11.39000	0.00232
11.40000	0.00232
11.41000	0.00231
11.42000	0.00231
11.43000	0.00231
11.44000	0.00231
11.45000	0.00230
11.46000	0.00230
11.47000	0.00230
11.48000	0.00230
11.49000	0.00229
11.50000	0.00229
11.51000	0.00229
11.52000	0.00229
11.53000	0.00229
11.54000	0.00228
11.55000	0.00228
11.56000	0.00228
11.57000	0.00228
11.58000	0.00227
11.59000	0.00227
11.60000	0.00227
11.61000	0.00227
11.62000	0.00226
11.63000	0.00226
11.64000	0.00226
11.65000	0.00226
11.66000	0.00226
11.67000	0.00225
11.68000	0.00225
11.69000	0.00225
11.70000	0.00225
11.71000	0.00225
11.72000	0.00224
11.73000	0.00224
11.74000	0.00224
11.75000	0.00224
11.76000	0.00223
11.77000	0.00223
11.78000	0.00223
11.79000	0.00223
11.80000	0.00223
11.81000	0.00222
11.82000	0.00222
11.83000	0.00222
11.84000	0.00222
11.85000	0.00222
11.86000	0.00221
11.87000	0.00221
11.88000	0.00221
11.89000	0.00221
11.90000	0.00221
11.91000	0.00220
11.92000	0.00220
11.93000	0.00220
11.94000	0.00220
11.95000	0.00220
11.96000	0.00219
11.97000	0.00219
11.98000	0.00219
11.99000	0.00219
12.00000	0.00219
12.01000	0.00218
12.02000	0.00218
12.03000	0.00218
12.04000	0.00218
12.05000	0.00218
12.06000	0.00217
12.07000	0.00217
12.08000	0.00217
12.09000	0.00217
12.10000	0.00217
12.11000	0.00216
12.12000	0.00216
12.13000	0.00216
12.14000	0.00216
12.15000	0.00216
12.16000	0.00215
12.17000	0.00215
12.18000	0.00215
12.19000	0.00215
12.20000	0.00215
12.21000	0.00215
12.22000	0.00214
12.23000	0.00214
12.24000	0.00214
12.25000	0.00214
12.26000	0.00214
12.27000	0.00213
12.28000	0.00213
12.29000	0.00213
12.30000	0.00213
12.31000	0.00213
12.32000	0.00212
12.33000	0.00212
12.34000	0.00212
12.35000	0.00212
12.36000	0.00212
12.37000	0.00212
12.38000	0.00211
12.39000	0.00211
12.40000	0.00211
12.41000	0.00211
12.42000	0.00211
12.43000	0.00211
12.44000	0.00210
12.45000	0.00210
12.46000	0.00210
12.47000	0.00210
12.48000	0.00210
12.49000	0.00210
12.50000	0.00209
12.51000	0.00209
12.52000	0.00209
12.53000	0.00209
12.54000	0.00209
12.55000	0.00209
12.56000	0.00208
12.57000	0.00208
12.58000	0.00208
12.59000	0.00208
12.60000	0.00208
12.61000	0.00208
12.62000	0.00207
12.63000	0.00207
12.64000	0.00207
12.65000	0.00207
12.66000	0.00207
12.67000	0.00207
12.68000	0.00206
12.69000	0.00206
12.70000	0.00206
12.71000	0.00206
12.72000	0.00206
12.73000	0.00206
12.74000	0.00205
12.75000	0.00205
12.76000	0.00205
12.77000	0.00205
12.78000	0.00205
12.79000	0.00205
12.80000	0.00204
12.81000	0.00204
12.82000	0.00204
12.83000	0.00204
12.84000	0.00204
12.85000	0.00204
12.86000	0.00204
12.87000	0.00203
12.88000	0.00203
12.89000	0.00203
12.90000	0.00203
12.91000	0.00203
12.92000	0.00203
12.93000	0.00202
12.94000	0.00202
12.95000	0.00202
12.96000	0.00202
12.97000	0.00202
12.98000	0.00202
12.99000	0.00202
13.00000	0.00201
13.01000	0.00201
13.02000	0.00201
13.03000	0.00201
13.04000	0.00201
13.05000	0.00201
13.06000	0.00201
13.07000	0.00200
13.08000	0.00200
13.09000	0.00200
13.10000	0.00200
13.11000	0.00200
13.12000	0.00200
13.13000	0.00200
13.14000	0.00199
13.15000	0.00199
13.16000	0.00199
13.17000	0.00199
13.18000	0.00199
13.19000	0.00199
13.20000	0.00199
13.21000	0.00198
13.22000	0.00198
13.23000	0.00198
13.24000	0.00198
13.25000	0.00198
13.26000	0.00198
13.27000	0.00198
13.28000	0.00198
13.29000	0.00197
13.30000	0.00197
13.31000	0.00197
13.32000	0.00197
13.33000	0.00197
13.34000	0.00197
13.35000	0.00197
13.36000	0.00197
13.37000	0.00196
13.38000	0.00196
13.39000	0.00196
13.40000	0.00196
13.41000	0.00196
13.42000	0.00196
13.43000	0.00196
13.44000	0.00195
13.45000	0.00195
13.46000	0.00195
13.47000	0.00195
13.48000	0.00195
13.49000	0.00195
13.50000	0.00195
13.51000	0.00195
13.52000	0.00194
13.53000	0.00194
13.54000	0.00194
13.55000	0.00194
13.56000	0.00194
13.57000	0.00194
13.58000	0.00194
13.59000	0.00194
13.60000	0.00194
13.61000	0.00193
13.62000	0.00193
13.63000	0.00193
13.64000	0.00193
13.65000	0.00193
13.66000	0.00193
13.67000	0.00193
13.68000	0.00193
13.69000	0.00192
13.70000	0.00192
13.71000	0.00192
13.72000	0.00192
13.73000	0.00192
13.74000	0.00192
13.75000	0.00192
13.76000	0.00192
13.77000	0.00192
13.78000	0.00191
13.79000	0.00191
13.80000	0.00191
13.81000	0.00191
13.82000	0.00191
13.83000	0.00191
13.84000	0.00191
13.85000	0.00191
13.86000	0.00191
13.87000	0.00190
13.88000	0.00190
13.89000	0.00190
13.90000	0.00190
13.91000	0.00190
13.92000	0.00190
13.93000	0.00190
13.94000	0.00190
13.95000	0.00190
13.96000	0.00189
13.97000	0.00189
13.98000	0.00189
13.99000	0.00189
14.00000	0.00189
14.01000	0.00189
14.02000	0.00189
14.03000	0.00189
14.04000	0.00189
14.05000	0.00189
14.06000	0.00188
14.07000	0.00188
14.08000	0.00188
14.09000	0.00188
14.10000	0.00188
14.11000	0.00188
14.12000	0.00188
14.13000	0.00188
14.14000	0.00188
14.15000	0.00188
14.16000	0.00187
14.17000	0.00187
14.18000	0.00187
14.19000	0.00187
14.20000	0.00187
14.21000	0.00187
14.22000	0.00187
14.23000	0.00187
14.24000	0.00187
14.25000	0.00187
14.26000	0.00186
14.27000	0.00186
14.28000	0.00186
14.29000	0.00186
14.30000	0.00186
14.31000	0.00186
14.32000	0.00186
14.33000	0.00186
14.34000	0.00186
14.35000	0.00186
14.36000	0.00186
14.37000	0.00185
14.38000	0.00185
14.39000	0.00185
14.40000	0.00185
14.41000	0.00185
14.42000	0.00185
14.43000	0.00185
14.44000	0.00185
14.45000	0.00185
14.46000	0.00185
14.47000	0.00185
14.48000	0.00184
14.49000	0.00184
14.50000	0.00184
14.51000	0.00184
14.52000	0.00184
14.53000	0.00184
14.54000	0.00184
14.55000	0.00184
14.56000	0.00184
14.57000	0.00184
14.58000	0.00184
14.59000	0.00184
14.60000	0.00183
14.61000	0.00183
14.62000	0.00183
14.63000	0.00183
14.64000	0.00183
14.65000	0.00183
14.66000	0.00183
14.67000	0.00183
14.68000	0.00183
14.69000	0.00183
14.70000	0.00183
14.71000	0.00183
14.72000	0.00183
14.73000	0.00182
14.74000	0.00182
14.75000	0.00182
14.76000	0.00182
14.77000	0.00182
14.78000	0.00182
14.79000	0.00182
14.80000	0.00182
14.81000	0.00182
14.82000	0.00182
14.83000	0.00182
14.84000	0.00182
14.85000	0.00182
14.86000	0.00181
14.87000	0.00181
14.88000	0.00181
14.89000	0.00181
14.90000	0.00181
14.91000	0.00181
14.92000	0.00181
14.93000	0.00181
14.94000	0.00181
14.95000	0.00181
14.96000	0.00181
14.97000	0.00181
14.98000	0.00181
14.99000	0.00181
15.00000	0.00180
15.01000	0.00180
15.02000	0.00180
15.03000	0.00180
15.04000	0.00180
15.05000	0.00180
15.06000	0.00180
15.07000	0.00180
15.08000	0.00180
15.09000	0.00180
15.10000	0.00180
15.11000	0.00180
15.12000	0.00180
15.13000	0.00180
15.14000	0.00180
15.15000	0.00179
15.16000	0.00179
15.17000	0.00179
15.18000	0.00179
15.19000	0.00179
15.20000	0.00179
15.21000	0.00179
15.22000	0.00179
15.23000	0.00179
15.24000	0.00179
15.25000	0.00179
15.26000	0.00179
15.27000	0.00179
15.28000	0.00179
15.29000	0.00179
15.30000	0.00179
15.31000	0.00178
15.32000	0.00178
15.33000	0.00178
15.34000	0.00178
15.35000	0.00178
15.36000	0.00178
15.37000	0.00178
15.38000	0.00178
15.39000	0.00178
15.40000	0.00178
15.41000	0.00178
15.42000	0.00178
15.43000	0.00178
15.44000	0.00178
15.45000	0.00178
15.46000	0.00178
15.47000	0.00178
15.48000	0.00178
15.49000	0.00178
15.50000	0.00177
15.51000	0.00177
15.52000	0.00177
15.53000	0.00177
15.54000	0.00177
15.55000	0.00177
15.56000	0.00177
15.57000	0.00177
15.58000	0.00177
15.59000	0.00177
15.60000	0.00177
15.61000	0.00177
15.62000	0.00177
15.63000	0.00177
15.64000	0.00177
15.65000	0.00177
15.66000	0.00177
15.67000	0.00177
15.68000	0.00177
15.69000	0.00177
15.70000	0.00176
15.71000	0.00176
15.72000	0.00176
15.73000	0.00176
15.74000	0.00176
15.75000	0.00176
15.76000	0.00176
15.77000	0.00176
15.78000	0.00176
15.79000	0.00176
15.80000	0.00176
15.81000	0.00176
15.82000	0.00176
15.83000	0.00176
15.84000	0.00176
15.85000	0.00176
15.86000	0.00176
15.87000	0.00176
15.88000	0.00176
15.89000	0.00176
15.90000	0.00176
15.91000	0.00176
15.92000	0.00176
15.93000	0.00176
15.94000	0.00175
15.95000	0.00175
15.96000	0.00175
15.97000	0.00175
15.98000	0.00175
15.99000	0.00175
16.00000	0.00175
16.01000	0.00175
16.02000	0.00175
16.03000	0.00175
16.04000	0.00175
16.05000	0.00175
16.06000	0.00175
16.07000	0.00175
16.08000	0.00175
16.09000	0.00175
16.10000	0.00175
16.11000	0.00175
16.12000	0.00175
16.13000	0.00175
16.14000	0.00175
16.15000	0.00175
16.16000	0.00175
16.17000	0.00175
16.18000	0.00175
16.19000	0.00175
16.20000	0.00175
16.21000	0.00175
16.22000	0.00175
16.23000	0.00175
16.24000	0.00174
16.25000	0.00174
16.26000	0.00174
16.27000	0.00174
16.28000	0.00174
16.29000	0.00174
16.30000	0.00174
16.31000	0.00174
16.32000	0.00174
16.33000	0.00174
16.34000	0.00174
16.35000	0.00174
16.36000	0.00174
16.37000	0.00174
16.38000	0.00174
16.39000	0.00174
16.40000	0.00174
16.41000	0.00174
16.42000	0.00174
16.43000	0.00174
16.44000	0.00174
16.45000	0.00174
16.46000	0.00174
16.47000	0.00174
16.48000	0.00174
16.49000	0.00174
16.50000	0.00174
16.51000	0.00174
16.52000	0.00174
16.53000	0.00174
16.54000	0.00174
16.55000	0.00174
16.56000	0.00174
16.57000	0.00174
16.58000	0.00174
16.59000	0.00174
16.60000	0.00174
16.61000	0.00174
16.62000	0.00174
16.63000	0.00174
16.64000	0.00174
16.65000	0.00174
16.66000	0.00174
16.67000	0.00174
16.68000	0.00174
16.69000	0.00174
16.70000	0.00174
16.71000	0.00174
16.72000	0.00173
16.73000	0.00173
16.74000	0.00173
16.75000	0.00173
16.76000	0.00173
16.77000	0.00173
16.78000	0.00173
16.79000	0.00173
16.80000	0.00173
16.81000	0.00173
16.82000	0.00173
16.83000	0.00173
16.84000	0.00173
16.85000	0.00173
16.86000	0.00173
16.87000	0.00173
16.88000	0.00173
16.89000	0.00173
16.90000	0.00173
16.91000	0.00173
16.92000	0.00173
16.93000	0.00173
16.94000	0.00173
16.95000	0.00173
16.96000	0.00173
16.97000	0.00173
16.98000	0.00173
16.99000	0.00173
17.00000	0.00173
17.01000	0.00173
17.02000	0.00173
17.03000	0.00173
17.04000	0.00173
17.05000	0.00173
17.06000	0.00173
17.07000	0.00173
17.08000	0.00173
17.09000	0.00173
17.10000	0.00173
17.11000	0.00173
17.12000	0.00173
17.13000	0.00173
17.14000	0.00173
17.15000	0.00173
17.16000	0.00173
17.17000	0.00173
17.18000	0.00173
17.19000	0.00173
17.20000	0.00173
17.21000	0.00173
17.22000	0.00173
17.23000	0.00173
17.24000	0.00173
17.25000	0.00173
17.26000	0.00173
17.27000	0.00173
17.28000	0.00173
17.29000	0.00173
17.30000	0.00173
17.31000	0.00173
17.32000	0.00173
17.33000	0.00173
17.34000	0.00173
17.35000	0.00173
17.36000	0.00173
17.37000	0.00173
17.38000	0.00173
17.39000	0.00173
17.40000	0.00173
17.41000	0.00173
17.42000	0.00173
17.43000	0.00173
17.44000	0.00173
17.45000	0.00173
17.46000	0.00173
17.47000	0.00173
17.48000	0.00173
17.49000	0.00174
17.50000	0.00174
17.51000	0.00174
17.52000	0.00174
17.53000	0.00174
17.54000	0.00174
17.55000	0.00174
17.56000	0.00174
17.57000	0.00174
17.58000	0.00174
17.59000	0.00174
17.60000	0.00174
17.61000	0.00174
17.62000	0.00174
17.63000	0.00174
17.64000	0.00174
17.65000	0.00174
17.66000	0.00174
17.67000	0.00174
17.68000	0.00174
17.69000	0.00174
17.70000	0.00174
17.71000	0.00174
17.72000	0.00174
17.73000	0.00174
17.74000	0.00174
17.75000	0.00174
17.76000	0.00174
17.77000	0.00174
17.78000	0.00174
17.79000	0.00174
17.80000	0.00174
17.81000	0.00174
17.82000	0.00174
17.83000	0.00174
17.84000	0.00174
17.85000	0.00174
17.86000	0.00174
17.87000	0.00174
17.88000	0.00174
17.89000	0.00174
17.90000	0.00174
17.91000	0.00174
17.92000	0.00174
17.93000	0.00174
17.94000	0.00174
17.95000	0.00174
17.96000	0.00175
17.97000	0.00175
17.98000	0.00175
17.99000	0.00175
18.00000	0.00175
18.01000	0.00175
18.02000	0.00175
18.03000	0.00175
18.04000	0.00175
18.05000	0.00175
18.06000	0.00175
18.07000	0.00175
18.08000	0.00175
18.09000	0.00175
18.10000	0.00175
18.11000	0.00175
18.12000	0.00175
18.13000	0.00175
18.14000	0.00175
18.15000	0.00175
18.16000	0.00175
18.17000	0.00175
18.18000	0.00175
18.19000	0.00175
18.20000	0.00175
18.21000	0.00175
18.22000	0.00175
18.23000	0.00175
18.24000	0.00176
18.25000	0.00176
18.26000	0.00176
18.27000	0.00176
18.28000	0.00176
18.29000	0.00176
18.30000	0.00176
18.31000	0.00176
18.32000	0.00176
18.33000	0.00176
18.34000	0.00176
18.35000	0.00176
18.36000	0.00176
18.37000	0.00176
18.38000	0.00176
18.39000	0.00176
18.40000	0.00176
18.41000	0.00176
18.42000	0.00176
18.43000	0.00176
18.44000	0.00176
18.45000	0.00176
18.46000	0.00177
18.47000	0.00177
18.48000	0.00177
18.49000	0.00177
18.50000	0.00177
18.51000	0.00177
18.52000	0.00177
18.53000	0.00177
18.54000	0.00177
18.55000	0.00177
18.56000	0.00177
18.57000	0.00177
18.58000	0.00177
18.59000	0.00177
18.60000	0.00177
18.61000	0.00177
18.62000	0.00177
18.63000	0.00177
18.64000	0.00178
18.65000	0.00178
18.66000	0.00178
18.67000	0.00178
18.68000	0.00178
18.69000	0.00178
18.70000	0.00178
18.71000	0.00178
18.72000	0.00178
18.73000	0.00178
18.74000	0.00178
18.75000	0.00178
18.76000	0.00178
18.77000	0.00178
18.78000	0.00178
18.79000	0.00178
18.80000	0.00178
18.81000	0.00179
18.82000	0.00179
18.83000	0.00179
18.84000	0.00179
18.85000	0.00179
18.86000	0.00179
18.87000	0.00179
18.88000	0.00179
18.89000	0.00179
18.90000	0.00179
18.91000	0.00179
18.92000	0.00179
18.93000	0.00179
18.94000	0.00179
18.95000	0.00180
18.96000	0.00180
18.97000	0.00180
18.98000	0.00180
18.99000	0.00180
19.00000	0.00180
19.01000	0.00180
19.02000	0.00180
19.03000	0.00180
19.04000	0.00180
19.05000	0.00180
19.06000	0.00180
19.07000	0.00180
19.08000	0.00181
19.09000	0.00181
19.10000	0.00181
19.11000	0.00181
19.12000	0.00181
19.13000	0.00181
19.14000	0.00181
19.15000	0.00181
19.16000	0.00181
19.17000	0.00181
19.18000	0.00181
19.19000	0.00181
19.20000	0.00181
19.21000	0.00182
19.22000	0.00182
19.23000	0.00182
19.24000	0.00182
19.25000	0.00182
19.26000	0.00182
19.27000	0.00182
19.28000	0.00182
19.29000	0.00182
19.30000	0.00182
19.31000	0.00182
19.32000	0.00183
19.33000	0.00183
19.34000	0.00183
19.35000	0.00183
19.36000	0.00183
19.37000	0.00183
19.38000	0.00183
19.39000	0.00183
19.40000	0.00183
19.41000	0.00183
19.42000	0.00183
19.43000	0.00184
19.44000	0.00184
19.45000	0.00184
19.46000	0.00184
19.47000	0.00184
19.48000	0.00184
19.49000	0.00184
19.50000	0.00184
19.51000	0.00184
19.52000	0.00184
19.53000	0.00185
19.54000	0.00185
19.55000	0.00185
19.56000	0.00185
19.57000	0.00185
19.58000	0.00185
19.59000	0.00185
19.60000	0.00185
19.61000	0.00185
19.62000	0.00186
19.63000	0.00186
19.64000	0.00186
19.65000	0.00186
19.66000	0.00186
19.67000	0.00186
19.68000	0.00186
19.69000	0.00186
19.70000	0.00186
19.71000	0.00186
19.72000	0.00187
19.73000	0.00187
19.74000	0.00187
19.75000	0.00187
19.76000	0.00187
19.77000	0.00187
19.78000	0.00187
19.79000	0.00187
19.80000	0.00188
19.81000	0.00188
19.82000	0.00188
19.83000	0.00188
19.84000	0.00188
19.85000	0.00188
19.86000	0.00188
19.87000	0.00188
19.88000	0.00189
19.89000	0.00189
19.90000	0.00189
19.91000	0.00189
19.92000	0.00189
19.93000	0.00189
19.94000	0.00189
19.95000	0.00189
19.96000	0.00190
19.97000	0.00190
19.98000	0.00190
19.99000	0.00190
20.00000	0.00190
20.01000	0.00190
20.02000	0.00190
20.03000	0.00190
20.04000	0.00191
20.05000	0.00191
20.06000	0.00191
20.07000	0.00191
20.08000	0.00191
20.09000	0.00191
20.10000	0.00191
20.11000	0.00192
20.12000	0.00192
20.13000	0.00192
20.14000	0.00192
20.15000	0.00192
20.16000	0.00192
20.17000	0.00192
20.18000	0.00193
20.19000	0.00193
20.20000	0.00193
20.21000	0.00193
20.22000	0.00193
20.23000	0.00193
20.24000	0.00193
20.25000	0.00194
20.26000	0.00194
20.27000	0.00194
20.28000	0.00194
20.29000	0.00194
20.30000	0.00194
20.31000	0.00194
20.32000	0.00195
20.33000	0.00195
20.34000	0.00195
20.35000	0.00195
20.36000	0.00195
20.37000	0.00195
20.38000	0.00196
20.39000	0.00196
20.40000	0.00196
20.41000	0.00196
20.42000	0.00196
20.43000	0.00196
20.44000	0.00197
20.45000	0.00197
20.46000	0.00197
20.47000	0.00197
20.48000	0.00197
20.49000	0.00197
20.50000	0.00197
20.51000	0.00198
20.52000	0.00198
20.53000	0.00198
20.54000	0.00198
20.55000	0.00198
20.56000	0.00199
20.57000	0.00199
20.58000	0.00199
20.59000	0.00199
20.60000	0.00199
20.61000	0.00199
20.62000	0.00200
20.63000	0.00200
20.64000	0.00200
20.65000	0.00200
20.66000	0.00200
20.67000	0.00200
20.68000	0.00201
20.69000	0.00201
20.70000	0.00201
20.71000	0.00201
20.72000	0.00201
20.73000	0.00202
20.74000	0.00202
20.75000	0.00202
20.76000	0.00202
20.77000	0.00202
20.78000	0.00203
20.79000	0.00203
20.80000	0.00203
20.81000	0.00203
20.82000	0.00203
20.83000	0.00204
20.84000	0.00204
20.85000	0.00204
20.86000	0.00204
20.87000	0.00204
20.88000	0.00205
20.89000	0.00205
20.90000	0.00205
20.91000	0.00205
20.92000	0.00205
20.93000	0.00206
20.94000	0.00206
20.95000	0.00206
20.96000	0.00206
20.97000	0.00206
20.98000	0.00207
20.99000	0.00207
21.00000	0.00207
21.01000	0.00207
21.02000	0.00207
21.03000	0.00208
21.04000	0.00208
21.05000	0.00208
21.06000	0.00208
21.07000	0.00209
21.08000	0.00209
21.09000	0.00209
21.10000	0.00209
21.11000	0.00209
21.12000	0.00210
21.13000	0.00210
21.14000	0.00210
21.15000	0.00210
21.16000	0.00211
21.17000	0.00211
21.18000	0.00211
21.19000	0.00211
21.20000	0.00212
21.21000	0.00212
21.22000	0.00212
21.23000	0.00212
21.24000	0.00212
21.25000	0.00213
21.26000	0.00213
21.27000	0.00213
21.28000	0.00213
21.29000	0.00214
21.30000	0.00214
21.31000	0.00214
21.32000	0.00214
21.33000	0.00215
21.34000	0.00215
21.35000	0.00215
21.36000	0.00215
21.37000	0.00216
21.38000	0.00216
21.39000	0.00216
21.40000	0.00216
21.41000	0.00217
21.42000	0.00217
21.43000	0.00217
21.44000	0.00217
21.45000	0.00218
21.46000	0.00218
21.47000	0.00218
21.48000	0.00219
21.49000	0.00219
21.50000	0.00219
21.51000	0.00219
21.52000	0.00220
21.53000	0.00220
21.54000	0.00220
21.55000	0.00220
21.56000	0.00221
21.57000	0.00221
21.58000	0.00221
21.59000	0.00222
21.60000	0.00222
21.61000	0.00222
21.62000	0.00222
21.63000	0.00223
21.64000	0.00223
21.65000	0.00223
21.66000	0.00224
21.67000	0.00224
21.68000	0.00224
21.69000	0.00225
21.70000	0.00225
21.71000	0.00225
21.72000	0.00225
21.73000	0.00226
21.74000	0.00226
21.75000	0.00226
21.76000	0.00227
21.77000	0.00227
21.78000	0.00227
21.79000	0.00228
21.80000	0.00228
21.81000	0.00228
21.82000	0.00229
21.83000	0.00229
21.84000	0.00229
21.85000	0.00229
21.86000	0.00230
21.87000	0.00230
21.88000	0.00230
21.89000	0.00231
21.90000	0.00231
21.91000	0.00231
21.92000	0.00232
21.93000	0.00232
21.94000	0.00232
21.95000	0.00233
21.96000	0.00233
21.97000	0.00233
21.98000	0.00234
21.99000	0.00234
22.00000	0.00234
22.01000	0.00235
22.02000	0.00235
22.03000	0.00236
22.04000	0.00236
22.05000	0.00236
22.06000	0.00237
22.07000	0.00237
22.08000	0.00237
22.09000	0.00238
22.10000	0.00238
22.11000	0.00238
22.12000	0.00239
22.13000	0.00239
22.14000	0.00240
22.15000	0.00240
22.16000	0.00240
22.17000	0.00241
22.18000	0.00241
22.19000	0.00241
22.20000	0.00242
22.21000	0.00242
22.22000	0.00243
22.23000	0.00243
22.24000	0.00243
22.25000	0.00244
22.26000	0.00244
22.27000	0.00244
22.28000	0.00245
22.29000	0.00245
22.30000	0.00246
22.31000	0.00246
22.32000	0.00247
22.33000	0.00247
22.34000	0.00247
22.35000	0.00248
22.36000	0.00248
22.37000	0.00249
22.38000	0.00249
22.39000	0.00249
22.40000	0.00250
22.41000	0.00250
22.42000	0.00251
22.43000	0.00251
22.44000	0.00252
22.45000	0.00252
22.46000	0.00252
22.47000	0.00253
22.48000	0.00253
22.49000	0.00254
22.50000	0.00254
22.51000	0.00255
22.52000	0.00255
22.53000	0.00256
22.54000	0.00256
22.55000	0.00256
22.56000	0.00257
22.57000	0.00257
22.58000	0.00258
22.59000	0.00258
22.60000	0.00259
22.61000	0.00259
22.62000	0.00260
22.63000	0.00260
22.64000	0.00261
22.65000	0.00261
22.66000	0.00262
22.67000	0.00262
22.68000	0.00263
22.69000	0.00263
22.70000	0.00264
22.71000	0.00264
22.72000	0.00265
22.73000	0.00265
22.74000	0.00266
22.75000	0.00266
22.76000	0.00267
22.77000	0.00267
22.78000	0.00268
22.79000	0.00268
22.80000	0.00269
22.81000	0.00269
22.82000	0.00270
22.83000	0.00270
22.84000	0.00271
22.85000	0.00271
22.86000	0.00272
22.87000	0.00272
22.88000	0.00273
22.89000	0.00273
22.90000	0.00274
22.91000	0.00275
22.92000	0.00275
22.93000	0.00276
22.94000	0.00276
22.95000	0.00277
22.96000	0.00277
22.97000	0.00278
22.98000	0.00279
22.99000	0.00279
23.00000	0.00280
23.01000	0.00280
23.02000	0.00281
23.03000	0.00281
23.04000	0.00282
23.05000	0.00283
23.06000	0.00283
23.07000	0.00284
23.08000	0.00284
23.09000	0.00285
23.10000	0.00286
23.11000	0.00286
23.12000	0.00287
23.13000	0.00288
23.14000	0.00288
23.15000	0.00289
23.16000	0.00289
23.17000	0.00290
23.18000	0.00291
23.19000	0.00291
23.20000	0.00292
23.21000	0.00293
23.22000	0.00293
23.23000	0.00294
23.24000	0.00295
23.25000	0.00295
23.26000	0.00296
23.27000	0.00297
23.28000	0.00297
23.29000	0.00298
23.30000	0.00299
23.31000	0.00299
23.32000	0.00300
23.33000	0.00301
23.34000	0.00302
23.35000	0.00302
23.36000	0.00303
23.37000	0.00304
23.38000	0.00304
23.39000	0.00305
23.40000	0.00306
23.41000	0.00307
23.42000	0.00307
23.43000	0.00308
23.44000	0.00309
23.45000	0.00310
23.46000	0.00310
23.47000	0.00311
23.48000	0.00312
23.49000	0.00313
23.50000	0.00313
23.51000	0.00314
23.52000	0.00315
23.53000	0.00316
23.54000	0.00317
23.55000	0.00317
23.56000	0.00318
23.57000	0.00319
23.58000	0.00320
23.59000	0.00321
23.60000	0.00321
23.61000	0.00322
23.62000	0.00323
23.63000	0.00324
23.64000	0.00325
23.65000	0.00326
23.66000	0.00326
23.67000	0.00327
23.68000	0.00328
23.69000	0.00329
23.70000	0.00330
23.71000	0.00331
23.72000	0.00332
23.73000	0.00333
23.74000	0.00333
23.75000	0.00334
23.76000	0.00335
23.77000	0.00336
23.78000	0.00337
23.79000	0.00338
23.80000	0.00339
23.81000	0.00340
23.82000	0.00341
23.83000	0.00342
23.84000	0.00343
23.85000	0.00344
23.86000	0.00345
23.87000	0.00346
23.88000	0.00347
23.89000	0.00348
23.90000	0.00349
23.91000	0.00350
23.92000	0.00351
23.93000	0.00352
23.94000	0.00353
23.95000	0.00354
23.96000	0.00355
23.97000	0.00356
23.98000	0.00357
23.99000	0.00358
24.00000	0.00359
24.01000	0.00360
24.02000	0.00361
24.03000	0.00362
24.04000	0.00363
24.05000	0.00364
24.06000	0.00365
24.07000	0.00366
24.08000	0.00368
24.09000	0.00369
24.10000	0.00370
24.11000	0.00371
24.12000	0.00372
24.13000	0.00373
24.14000	0.00374
24.15000	0.00376
24.16000	0.00377
24.17000	0.00378
24.18000	0.00379
24.19000	0.00380
24.20000	0.00382
24.21000	0.00383
24.22000	0.00384
24.23000	0.00385
24.24000	0.00387
24.25000	0.00388
24.26000	0.00389
24.27000	0.00390
24.28000	0.00392
24.29000	0.00393
24.30000	0.00394
24.31000	0.00395
24.32000	0.00397
24.33000	0.00398
24.34000	0.00399
24.35000	0.00401
24.36000	0.00402
24.37000	0.00404
24.38000	0.00405
24.39000	0.00406
24.40000	0.00408
24.41000	0.00409
24.42000	0.00410
24.43000	0.00412
24.44000	0.00413
24.45000	0.00415
24.46000	0.00416
24.47000	0.00418
24.48000	0.00419
24.49000	0.00421
24.50000	0.00422
24.51000	0.00424
24.52000	0.00425
24.53000	0.00427
24.54000	0.00428
24.55000	0.00430
24.56000	0.00431
24.57000	0.00433
24.58000	0.00435
24.59000	0.00436
24.60000	0.00438
24.61000	0.00439
24.62000	0.00441
24.63000	0.00443
24.64000	0.00444
24.65000	0.00446
24.66000	0.00448
24.67000	0.00449
24.68000	0.00451
24.69000	0.00453
24.70000	0.00455
24.71000	0.00456
24.72000	0.00458
24.73000	0.00460
24.74000	0.00462
24.75000	0.00464
24.76000	0.00465
24.77000	0.00467
24.78000	0.00469
24.79000	0.00471
24.80000	0.00473
24.81000	0.00475
24.82000	0.00477
24.83000	0.00479
24.84000	0.00480
24.85000	0.00482
24.86000	0.00484
24.87000	0.00486
24.88000	0.00488
24.89000	0.00490
24.90000	0.00492
24.91000	0.00495
24.92000	0.00497
24.93000	0.00499
24.94000	0.00501
24.95000	0.00503
24.96000	0.00505
24.97000	0.00507
24.98000	0.00509
24.99000	0.00512
25.00000	0.00514
25.01000	0.00516
25.02000	0.00518
25.03000	0.00521
25.04000	0.00523
25.05000	0.00525
25.06000	0.00528
25.07000	0.00530
25.08000	0.00532
25.09000	0.00535
25.10000	0.00537
25.11000	0.00540
25.12000	0.00542
25.13000	0.00544
25.14000	0.00547
25.15000	0.00550
25.16000	0.00552
25.17000	0.00555
25.18000	0.00557
25.19000	0.00560
25.20000	0.00562
25.21000	0.00565
25.22000	0.00568
25.23000	0.00571
25.24000	0.00573
25.25000	0.00576
25.26000	0.00579
25.27000	0.00582
25.28000	0.00584
25.29000	0.00587
25.30000	0.00590
25.31000	0.00593
25.32000	0.00596
25.33000	0.00599
25.34000	0.00602
25.35000	0.00605
25.36000	0.00608
25.37000	0.00611
25.38000	0.00614
25.39000	0.00617
25.40000	0.00621
25.41000	0.00624
25.42000	0.00627
25.43000	0.00630
25.44000	0.00634
25.45000	0.00637
25.46000	0.00640
25.47000	0.00644
25.48000	0.00647
25.49000	0.00651
25.50000	0.00654
25.51000	0.00658
25.52000	0.00661
25.53000	0.00665
25.54000	0.00668
25.55000	0.00672
25.56000	0.00676
25.57000	0.00679
25.58000	0.00683
25.59000	0.00687
25.60000	0.00691
25.61000	0.00695
25.62000	0.00699
25.63000	0.00703
25.64000	0.00707
25.65000	0.00711
25.66000	0.00715
25.67000	0.00719
25.68000	0.00723
25.69000	0.00727
25.70000	0.00732
25.71000	0.00736
25.72000	0.00740
25.73000	0.00745
25.74000	0.00749
25.75000	0.00754
25.76000	0.00758
25.77000	0.00763
25.78000	0.00768
25.79000	0.00772
25.80000	0.00777
25.81000	0.00782
25.82000	0.00787
25.83000	0.00792
25.84000	0.00797
25.85000	0.00802
25.86000	0.00807
25.87000	0.00812
25.88000	0.00817
25.89000	0.00822
25.90000	0.00828
25.91000	0.00833
25.92000	0.00839
25.93000	0.00844
25.94000	0.00850
25.95000	0.00855
25.96000	0.00861
25.97000	0.00867
25.98000	0.00873
25.99000	0.00879
26.00000	0.00885
26.01000	0.00891
26.02000	0.00897
26.03000	0.00903
26.04000	0.00909
26.05000	0.00916
26.06000	0.00922
26.07000	0.00928
26.08000	0.00935
26.09000	0.00942
26.10000	0.00948
26.11000	0.00955
26.12000	0.00962
26.13000	0.00969
26.14000	0.00976
26.15000	0.00984
26.16000	0.00991
26.17000	0.00998
26.18000	0.01006
26.19000	0.01013
26.20000	0.01021
26.21000	0.01029
26.22000	0.01036
26.23000	0.01044
26.24000	0.01052
26.25000	0.01061
26.26000	0.01069
26.27000	0.01077
26.28000	0.01086
26.29000	0.01094
26.30000	0.01103
26.31000	0.01112
26.32000	0.01121
26.33000	0.01130
26.34000	0.01139
26.35000	0.01149
26.36000	0.01158
26.37000	0.01168
26.38000	0.01178
26.39000	0.01187
26.40000	0.01197
26.41000	0.01208
26.42000	0.01218
26.43000	0.01228
26.44000	0.01239
26.45000	0.01250
26.46000	0.01261
26.47000	0.01272
26.48000	0.01283
26.49000	0.01295
26.50000	0.01306
26.51000	0.01318
26.52000	0.01330
26.53000	0.01342
26.54000	0.01354
26.55000	0.01367
26.56000	0.01380
26.57000	0.01392
26.58000	0.01406
26.59000	0.01419
26.60000	0.01432
26.61000	0.01446
26.62000	0.01460
26.63000	0.01474
26.64000	0.01489
26.65000	0.01503
26.66000	0.01518
26.67000	0.01533
26.68000	0.01549
26.69000	0.01564
26.70000	0.01580
26.71000	0.01596
26.72000	0.01613
26.73000	0.01629
26.74000	0.01646
26.75000	0.01664
26.76000	0.01681
26.77000	0.01699
26.78000	0.01717
26.79000	0.01736
26.80000	0.01755
26.81000	0.01774
26.82000	0.01794
26.83000	0.01813
26.84000	0.01834
26.85000	0.01854
26.86000	0.01875
26.87000	0.01897
26.88000	0.01919
26.89000	0.01941
26.90000	0.01963
26.91000	0.01986
26.92000	0.02010
26.93000	0.02034
26.94000	0.02058
26.95000	0.02083
26.96000	0.02108
26.97000	0.02134
26.98000	0.02161
26.99000	0.02188
27.00000	0.02215
27.01000	0.02243
27.02000	0.02272
27.03000	0.02301
27.04000	0.02331
27.05000	0.02361
27.06000	0.02392
27.07000	0.02424
27.08000	0.02456
27.09000	0.02489
27.10000	0.02523
27.11000	0.02558
27.12000	0.02593
27.13000	0.02629
27.14000	0.02666
27.15000	0.02704
27.16000	0.02742
27.17000	0.02782
27.18000	0.02822
27.19000	0.02864
27.20000	0.02906
27.21000	0.02949
27.22000	0.02994
27.23000	0.03039
27.24000	0.03086
27.25000	0.03133
27.26000	0.03182
27.27000	0.03232
27.28000	0.03283
27.29000	0.03336
27.30000	0.03390
27.31000	0.03445
27.32000	0.03502
27.33000	0.03560
27.34000	0.03620
27.35000	0.03682
27.36000	0.03745
27.37000	0.03809
27.38000	0.03876
27.39000	0.03944
27.40000	0.04015
27.41000	0.04087
27.42000	0.04161
27.43000	0.04238
27.44000	0.04317
27.45000	0.04398
27.46000	0.04481
27.47000	0.04567
27.48000	0.04656
27.49000	0.04747
27.50000	0.04841
27.51000	0.04938
27.52000	0.05038
27.53000	0.05142
27.54000	0.05248
27.55000	0.05359
27.56000	0.05472
27.57000	0.05590
27.58000	0.05712
27.59000	0.05837
27.60000	0.05967
27.61000	0.06102
27.62000	0.06241
27.63000	0.06386
27.64000	0.06536
27.65000	0.06691
27.66000	0.06852
27.67000	0.07019
27.68000	0.07192
27.69000	0.07373
27.70000	0.07560
27.71000	0.07754
27.72000	0.07957
27.73000	0.08168
27.74000	0.08387
27.75000	0.08616
27.76000	0.08855
27.77000	0.09104
27.78000	0.09364
27.79000	0.09635
27.80000	0.09919
27.81000	0.10216
27.82000	0.10527
27.83000	0.10852
27.84000	0.11194
27.85000	0.11552
27.86000	0.11928
27.87000	0.12323
27.88000	0.12738
27.89000	0.13176
27.90000	0.13637
27.91000	0.14123
27.92000	0.14636
27.93000	0.15178
27.94000	0.15752
27.95000	0.16359
27.96000	0.17004
27.97000	0.17687
27.98000	0.18414
27.99000	0.19187
28.00000	0.20011
28.01000	0.20891
28.02000	0.21831
28.03000	0.22836
28.04000	0.23915
28.05000	0.25073
28.06000	0.26319
28.07000	0.27662
28.08000	0.29113
28.09000	0.30682
28.10000	0.32384
28.11000	0.34235
28.12000	0.36252
28.13000	0.38455
28.14000	0.40870
28.15000	0.43523
28.16000	0.46447
28.17000	0.49682
28.18000	0.53273
28.19000	0.57275
28.20000	0.61752
28.21000	0.66786
28.22000	0.72472
28.23000	0.78930
28.24000	0.86307
28.25000	0.94787
28.26000	1.04605
28.27000	1.16061
28.28000	1.29543
28.29000	1.45564
28.30000	1.64811
28.31000	1.88219
28.32000	2.17092
28.33000	2.53287
28.34000	2.99521
28.35000	3.59894
28.36000	4.40865
28.37000	5.53455
28.38000	7.20104
28.39000	9.97530
28.40000     15.32933
28.41000     26.26907
28.42000     46.51147
28.43000     75.99263
28.44000    100.00000
28.45000     92.03259
28.46000     63.75788
28.47000     40.96422
28.48000     31.04346
28.49000     33.20130
28.50000     43.86547
28.51000     53.84200
28.52000     48.83412
28.53000     33.38198
28.54000     20.01297
28.55000     11.85307
28.56000	7.61603
28.57000	5.44922
28.58000	4.20210
28.59000	3.37825
28.60000	2.78679
28.61000	2.34309
28.62000	2.00050
28.63000	1.72990
28.64000	1.51209
28.65000	1.33393
28.66000	1.18617
28.67000	1.06215
28.68000	0.95696
28.69000	0.86691
28.70000	0.78919
28.71000	0.72161
28.72000	0.66245
28.73000	0.61036
28.74000	0.56424
28.75000	0.52320
28.76000	0.48651
28.77000	0.45358
28.78000	0.42389
28.79000	0.39705
28.80000	0.37269
28.81000	0.35051
28.82000	0.33026
28.83000	0.31171
28.84000	0.29469
28.85000	0.27903
28.86000	0.26459
28.87000	0.25124
28.88000	0.23887
28.89000	0.22739
28.90000	0.21673
28.91000	0.20679
28.92000	0.19752
28.93000	0.18886
28.94000	0.18075
28.95000	0.17316
28.96000	0.16603
28.97000	0.15933
28.98000	0.15303
28.99000	0.14709
29.00000	0.14149
29.01000	0.13621
29.02000	0.13121
29.03000	0.12648
29.04000	0.12200
29.05000	0.11776
29.06000	0.11373
29.07000	0.10990
29.08000	0.10626
29.09000	0.10280
29.10000	0.09951
29.11000	0.09637
29.12000	0.09337
29.13000	0.09051
29.14000	0.08778
29.15000	0.08517
29.16000	0.08268
29.17000	0.08029
29.18000	0.07800
29.19000	0.07581
29.20000	0.07371
29.21000	0.07170
29.22000	0.06977
29.23000	0.06791
29.24000	0.06612
29.25000	0.06441
29.26000	0.06276
29.27000	0.06117
29.28000	0.05964
29.29000	0.05817
29.30000	0.05675
29.31000	0.05538
29.32000	0.05406
29.33000	0.05279
29.34000	0.05156
29.35000	0.05038
29.36000	0.04923
29.37000	0.04812
29.38000	0.04705
29.39000	0.04601
29.40000	0.04501
29.41000	0.04404
29.42000	0.04310
29.43000	0.04219
29.44000	0.04131
29.45000	0.04046
29.46000	0.03963
29.47000	0.03883
29.48000	0.03805
29.49000	0.03729
29.50000	0.03656
29.51000	0.03584
29.52000	0.03515
29.53000	0.03448
29.54000	0.03383
29.55000	0.03319
29.56000	0.03258
29.57000	0.03198
29.58000	0.03139
29.59000	0.03082
29.60000	0.03027
29.61000	0.02973
29.62000	0.02921
29.63000	0.02870
29.64000	0.02820
29.65000	0.02772
29.66000	0.02724
29.67000	0.02678
29.68000	0.02634
29.69000	0.02590
29.70000	0.02547
29.71000	0.02506
29.72000	0.02465
29.73000	0.02425
29.74000	0.02387
29.75000	0.02349
29.76000	0.02312
29.77000	0.02276
29.78000	0.02241
29.79000	0.02207
29.80000	0.02173
29.81000	0.02140
29.82000	0.02108
29.83000	0.02077
29.84000	0.02046
29.85000	0.02016
29.86000	0.01987
29.87000	0.01958
29.88000	0.01930
29.89000	0.01903
29.90000	0.01876
29.91000	0.01849
29.92000	0.01824
29.93000	0.01798
29.94000	0.01774
29.95000	0.01749
29.96000	0.01726
29.97000	0.01702
29.98000	0.01680
29.99000	0.01657
30.00000	0.01636
30.01000	0.01614
30.02000	0.01593
30.03000	0.01573
30.04000	0.01552
30.05000	0.01533
30.06000	0.01513
30.07000	0.01494
30.08000	0.01475
30.09000	0.01457
30.10000	0.01439
30.11000	0.01421
30.12000	0.01404
30.13000	0.01387
30.14000	0.01370
30.15000	0.01354
30.16000	0.01338
30.17000	0.01322
30.18000	0.01307
30.19000	0.01291
30.20000	0.01276
30.21000	0.01262
30.22000	0.01247
30.23000	0.01233
30.24000	0.01219
30.25000	0.01205
30.26000	0.01192
30.27000	0.01179
30.28000	0.01166
30.29000	0.01153
30.30000	0.01140
30.31000	0.01128
30.32000	0.01116
30.33000	0.01104
30.34000	0.01092
30.35000	0.01080
30.36000	0.01069
30.37000	0.01058
30.38000	0.01046
30.39000	0.01036
30.40000	0.01025
30.41000	0.01014
30.42000	0.01004
30.43000	0.00994
30.44000	0.00984
30.45000	0.00974
30.46000	0.00964
30.47000	0.00955
30.48000	0.00945
30.49000	0.00936
30.50000	0.00927
30.51000	0.00918
30.52000	0.00909
30.53000	0.00900
30.54000	0.00892
30.55000	0.00883
30.56000	0.00875
30.57000	0.00866
30.58000	0.00858
30.59000	0.00850
30.60000	0.00842
30.61000	0.00835
30.62000	0.00827
30.63000	0.00819
30.64000	0.00812
30.65000	0.00805
30.66000	0.00797
30.67000	0.00790
30.68000	0.00783
30.69000	0.00776
30.70000	0.00770
30.71000	0.00763
30.72000	0.00756
30.73000	0.00750
30.74000	0.00743
30.75000	0.00737
30.76000	0.00730
30.77000	0.00724
30.78000	0.00718
30.79000	0.00712
30.80000	0.00706
30.81000	0.00700
30.82000	0.00694
30.83000	0.00689
30.84000	0.00683
30.85000	0.00677
30.86000	0.00672
30.87000	0.00666
30.88000	0.00661
30.89000	0.00656
30.90000	0.00651
30.91000	0.00645
30.92000	0.00640
30.93000	0.00635
30.94000	0.00630
30.95000	0.00625
30.96000	0.00620
30.97000	0.00616
30.98000	0.00611
30.99000	0.00606
31.00000	0.00602
31.01000	0.00597
31.02000	0.00593
31.03000	0.00588
31.04000	0.00584
31.05000	0.00579
31.06000	0.00575
31.07000	0.00571
31.08000	0.00567
31.09000	0.00563
31.10000	0.00558
31.11000	0.00554
31.12000	0.00550
31.13000	0.00546
31.14000	0.00543
31.15000	0.00539
31.16000	0.00535
31.17000	0.00531
31.18000	0.00527
31.19000	0.00524
31.20000	0.00520
31.21000	0.00517
31.22000	0.00513
31.23000	0.00509
31.24000	0.00506
31.25000	0.00503
31.26000	0.00499
31.27000	0.00496
31.28000	0.00492
31.29000	0.00489
31.30000	0.00486
31.31000	0.00483
31.32000	0.00480
31.33000	0.00476
31.34000	0.00473
31.35000	0.00470
31.36000	0.00467
31.37000	0.00464
31.38000	0.00461
31.39000	0.00458
31.40000	0.00455
31.41000	0.00452
31.42000	0.00450
31.43000	0.00447
31.44000	0.00444
31.45000	0.00441
31.46000	0.00438
31.47000	0.00436
31.48000	0.00433
31.49000	0.00430
31.50000	0.00428
31.51000	0.00425
31.52000	0.00423
31.53000	0.00420
31.54000	0.00418
31.55000	0.00415
31.56000	0.00413
31.57000	0.00410
31.58000	0.00408
31.59000	0.00405
31.60000	0.00403
31.61000	0.00401
31.62000	0.00398
31.63000	0.00396
31.64000	0.00394
31.65000	0.00392
31.66000	0.00389
31.67000	0.00387
31.68000	0.00385
31.69000	0.00383
31.70000	0.00381
31.71000	0.00379
31.72000	0.00376
31.73000	0.00374
31.74000	0.00372
31.75000	0.00370
31.76000	0.00368
31.77000	0.00366
31.78000	0.00364
31.79000	0.00362
31.80000	0.00360
31.81000	0.00358
31.82000	0.00357
31.83000	0.00355
31.84000	0.00353
31.85000	0.00351
31.86000	0.00349
31.87000	0.00347
31.88000	0.00345
31.89000	0.00344
31.90000	0.00342
31.91000	0.00340
31.92000	0.00338
31.93000	0.00337
31.94000	0.00335
31.95000	0.00333
31.96000	0.00332
31.97000	0.00330
31.98000	0.00328
31.99000	0.00327
32.00000	0.00325
32.01000	0.00324
32.02000	0.00322
32.03000	0.00320
32.04000	0.00319
32.05000	0.00317
32.06000	0.00316
32.07000	0.00314
32.08000	0.00313
32.09000	0.00311
32.10000	0.00310
32.11000	0.00308
32.12000	0.00307
32.13000	0.00305
32.14000	0.00304
32.15000	0.00303
32.16000	0.00301
32.17000	0.00300
32.18000	0.00298
32.19000	0.00297
32.20000	0.00296
32.21000	0.00294
32.22000	0.00293
32.23000	0.00292
32.24000	0.00290
32.25000	0.00289
32.26000	0.00288
32.27000	0.00287
32.28000	0.00285
32.29000	0.00284
32.30000	0.00283
32.31000	0.00282
32.32000	0.00280
32.33000	0.00279
32.34000	0.00278
32.35000	0.00277
32.36000	0.00276
32.37000	0.00275
32.38000	0.00273
32.39000	0.00272
32.40000	0.00271
32.41000	0.00270
32.42000	0.00269
32.43000	0.00268
32.44000	0.00267
32.45000	0.00266
32.46000	0.00264
32.47000	0.00263
32.48000	0.00262
32.49000	0.00261
32.50000	0.00260
32.51000	0.00259
32.52000	0.00258
32.53000	0.00257
32.54000	0.00256
32.55000	0.00255
32.56000	0.00254
32.57000	0.00253
32.58000	0.00252
32.59000	0.00251
32.60000	0.00250
32.61000	0.00249
32.62000	0.00248
32.63000	0.00247
32.64000	0.00246
32.65000	0.00246
32.66000	0.00245
32.67000	0.00244
32.68000	0.00243
32.69000	0.00242
32.70000	0.00241
32.71000	0.00240
32.72000	0.00239
32.73000	0.00238
32.74000	0.00237
32.75000	0.00237
32.76000	0.00236
32.77000	0.00235
32.78000	0.00234
32.79000	0.00233
32.80000	0.00232
32.81000	0.00232
32.82000	0.00231
32.83000	0.00230
32.84000	0.00229
32.85000	0.00228
32.86000	0.00228
32.87000	0.00227
32.88000	0.00226
32.89000	0.00225
32.90000	0.00225
32.91000	0.00224
32.92000	0.00223
32.93000	0.00222
32.94000	0.00222
32.95000	0.00221
32.96000	0.00220
32.97000	0.00219
32.98000	0.00219
32.99000	0.00218
33.00000	0.00217
33.01000	0.00216
33.02000	0.00216
33.03000	0.00215
33.04000	0.00214
33.05000	0.00214
33.06000	0.00213
33.07000	0.00212
33.08000	0.00212
33.09000	0.00211
33.10000	0.00210
33.11000	0.00210
33.12000	0.00209
33.13000	0.00208
33.14000	0.00208
33.15000	0.00207
33.16000	0.00207
33.17000	0.00206
33.18000	0.00205
33.19000	0.00205
33.20000	0.00204
33.21000	0.00203
33.22000	0.00203
33.23000	0.00202
33.24000	0.00202
33.25000	0.00201
33.26000	0.00201
33.27000	0.00200
33.28000	0.00199
33.29000	0.00199
33.30000	0.00198
33.31000	0.00198
33.32000	0.00197
33.33000	0.00197
33.34000	0.00196
33.35000	0.00195
33.36000	0.00195
33.37000	0.00194
33.38000	0.00194
33.39000	0.00193
33.40000	0.00193
33.41000	0.00192
33.42000	0.00192
33.43000	0.00191
33.44000	0.00191
33.45000	0.00190
33.46000	0.00190
33.47000	0.00189
33.48000	0.00189
33.49000	0.00188
33.50000	0.00188
33.51000	0.00187
33.52000	0.00187
33.53000	0.00186
33.54000	0.00186
33.55000	0.00185
33.56000	0.00185
33.57000	0.00184
33.58000	0.00184
33.59000	0.00183
33.60000	0.00183
33.61000	0.00183
33.62000	0.00182
33.63000	0.00182
33.64000	0.00181
33.65000	0.00181
33.66000	0.00180
33.67000	0.00180
33.68000	0.00179
33.69000	0.00179
33.70000	0.00179
33.71000	0.00178
33.72000	0.00178
33.73000	0.00177
33.74000	0.00177
33.75000	0.00176
33.76000	0.00176
33.77000	0.00176
33.78000	0.00175
33.79000	0.00175
33.80000	0.00174
33.81000	0.00174
33.82000	0.00174
33.83000	0.00173
33.84000	0.00173
33.85000	0.00173
33.86000	0.00172
33.87000	0.00172
33.88000	0.00171
33.89000	0.00171
33.90000	0.00171
33.91000	0.00170
33.92000	0.00170
33.93000	0.00170
33.94000	0.00169
33.95000	0.00169
33.96000	0.00168
33.97000	0.00168
33.98000	0.00168
33.99000	0.00167
34.00000	0.00167
34.01000	0.00167
34.02000	0.00166
34.03000	0.00166
34.04000	0.00166
34.05000	0.00165
34.06000	0.00165
34.07000	0.00165
34.08000	0.00164
34.09000	0.00164
34.10000	0.00164
34.11000	0.00163
34.12000	0.00163
34.13000	0.00163
34.14000	0.00162
34.15000	0.00162
34.16000	0.00162
34.17000	0.00162
34.18000	0.00161
34.19000	0.00161
34.20000	0.00161
34.21000	0.00160
34.22000	0.00160
34.23000	0.00160
34.24000	0.00159
34.25000	0.00159
34.26000	0.00159
34.27000	0.00159
34.28000	0.00158
34.29000	0.00158
34.30000	0.00158
34.31000	0.00157
34.32000	0.00157
34.33000	0.00157
34.34000	0.00157
34.35000	0.00156
34.36000	0.00156
34.37000	0.00156
34.38000	0.00156
34.39000	0.00155
34.40000	0.00155
34.41000	0.00155
34.42000	0.00155
34.43000	0.00154
34.44000	0.00154
34.45000	0.00154
34.46000	0.00154
34.47000	0.00153
34.48000	0.00153
34.49000	0.00153
34.50000	0.00153
34.51000	0.00152
34.52000	0.00152
34.53000	0.00152
34.54000	0.00152
34.55000	0.00151
34.56000	0.00151
34.57000	0.00151
34.58000	0.00151
34.59000	0.00150
34.60000	0.00150
34.61000	0.00150
34.62000	0.00150
34.63000	0.00150
34.64000	0.00149
34.65000	0.00149
34.66000	0.00149
34.67000	0.00149
34.68000	0.00148
34.69000	0.00148
34.70000	0.00148
34.71000	0.00148
34.72000	0.00148
34.73000	0.00147
34.74000	0.00147
34.75000	0.00147
34.76000	0.00147
34.77000	0.00147
34.78000	0.00146
34.79000	0.00146
34.80000	0.00146
34.81000	0.00146
34.82000	0.00146
34.83000	0.00145
34.84000	0.00145
34.85000	0.00145
34.86000	0.00145
34.87000	0.00145
34.88000	0.00144
34.89000	0.00144
34.90000	0.00144
34.91000	0.00144
34.92000	0.00144
34.93000	0.00144
34.94000	0.00143
34.95000	0.00143
34.96000	0.00143
34.97000	0.00143
34.98000	0.00143
34.99000	0.00143
35.00000	0.00142
35.01000	0.00142
35.02000	0.00142
35.03000	0.00142
35.04000	0.00142
35.05000	0.00142
35.06000	0.00141
35.07000	0.00141
35.08000	0.00141
35.09000	0.00141
35.10000	0.00141
35.11000	0.00141
35.12000	0.00140
35.13000	0.00140
35.14000	0.00140
35.15000	0.00140
35.16000	0.00140
35.17000	0.00140
35.18000	0.00140
35.19000	0.00139
35.20000	0.00139
35.21000	0.00139
35.22000	0.00139
35.23000	0.00139
35.24000	0.00139
35.25000	0.00139
35.26000	0.00138
35.27000	0.00138
35.28000	0.00138
35.29000	0.00138
35.30000	0.00138
35.31000	0.00138
35.32000	0.00138
35.33000	0.00137
35.34000	0.00137
35.35000	0.00137
35.36000	0.00137
35.37000	0.00137
35.38000	0.00137
35.39000	0.00137
35.40000	0.00137
35.41000	0.00136
35.42000	0.00136
35.43000	0.00136
35.44000	0.00136
35.45000	0.00136
35.46000	0.00136
35.47000	0.00136
35.48000	0.00136
35.49000	0.00136
35.50000	0.00135
35.51000	0.00135
35.52000	0.00135
35.53000	0.00135
35.54000	0.00135
35.55000	0.00135
35.56000	0.00135
35.57000	0.00135
35.58000	0.00135
35.59000	0.00134
35.60000	0.00134
35.61000	0.00134
35.62000	0.00134
35.63000	0.00134
35.64000	0.00134
35.65000	0.00134
35.66000	0.00134
35.67000	0.00134
35.68000	0.00134
35.69000	0.00133
35.70000	0.00133
35.71000	0.00133
35.72000	0.00133
35.73000	0.00133
35.74000	0.00133
35.75000	0.00133
35.76000	0.00133
35.77000	0.00133
35.78000	0.00133
35.79000	0.00133
35.80000	0.00133
35.81000	0.00132
35.82000	0.00132
35.83000	0.00132
35.84000	0.00132
35.85000	0.00132
35.86000	0.00132
35.87000	0.00132
35.88000	0.00132
35.89000	0.00132
35.90000	0.00132
35.91000	0.00132
35.92000	0.00132
35.93000	0.00132
35.94000	0.00131
35.95000	0.00131
35.96000	0.00131
35.97000	0.00131
35.98000	0.00131
35.99000	0.00131
36.00000	0.00131
36.01000	0.00131
36.02000	0.00131
36.03000	0.00131
36.04000	0.00131
36.05000	0.00131
36.06000	0.00131
36.07000	0.00131
36.08000	0.00131
36.09000	0.00131
36.10000	0.00130
36.11000	0.00130
36.12000	0.00130
36.13000	0.00130
36.14000	0.00130
36.15000	0.00130
36.16000	0.00130
36.17000	0.00130
36.18000	0.00130
36.19000	0.00130
36.20000	0.00130
36.21000	0.00130
36.22000	0.00130
36.23000	0.00130
36.24000	0.00130
36.25000	0.00130
36.26000	0.00130
36.27000	0.00130
36.28000	0.00130
36.29000	0.00130
36.30000	0.00129
36.31000	0.00129
36.32000	0.00129
36.33000	0.00129
36.34000	0.00129
36.35000	0.00129
36.36000	0.00129
36.37000	0.00129
36.38000	0.00129
36.39000	0.00129
36.40000	0.00129
36.41000	0.00129
36.42000	0.00129
36.43000	0.00129
36.44000	0.00129
36.45000	0.00129
36.46000	0.00129
36.47000	0.00129
36.48000	0.00129
36.49000	0.00129
36.50000	0.00129
36.51000	0.00129
36.52000	0.00129
36.53000	0.00129
36.54000	0.00129
36.55000	0.00129
36.56000	0.00129
36.57000	0.00129
36.58000	0.00129
36.59000	0.00129
36.60000	0.00129
36.61000	0.00129
36.62000	0.00129
36.63000	0.00129
36.64000	0.00129
36.65000	0.00128
36.66000	0.00128
36.67000	0.00128
36.68000	0.00128
36.69000	0.00128
36.70000	0.00128
36.71000	0.00128
36.72000	0.00128
36.73000	0.00128
36.74000	0.00128
36.75000	0.00128
36.76000	0.00128
36.77000	0.00128
36.78000	0.00128
36.79000	0.00128
36.80000	0.00128
36.81000	0.00128
36.82000	0.00128
36.83000	0.00128
36.84000	0.00128
36.85000	0.00128
36.86000	0.00128
36.87000	0.00128
36.88000	0.00128
36.89000	0.00128
36.90000	0.00128
36.91000	0.00128
36.92000	0.00128
36.93000	0.00128
36.94000	0.00128
36.95000	0.00128
36.96000	0.00128
36.97000	0.00128
36.98000	0.00128
36.99000	0.00128
37.00000	0.00128
37.01000	0.00128
37.02000	0.00128
37.03000	0.00128
37.04000	0.00128
37.05000	0.00128
37.06000	0.00128
37.07000	0.00128
37.08000	0.00128
37.09000	0.00128
37.10000	0.00128
37.11000	0.00128
37.12000	0.00128
37.13000	0.00129
37.14000	0.00129
37.15000	0.00129
37.16000	0.00129
37.17000	0.00129
37.18000	0.00129
37.19000	0.00129
37.20000	0.00129
37.21000	0.00129
37.22000	0.00129
37.23000	0.00129
37.24000	0.00129
37.25000	0.00129
37.26000	0.00129
37.27000	0.00129
37.28000	0.00129
37.29000	0.00129
37.30000	0.00129
37.31000	0.00129
37.32000	0.00129
37.33000	0.00119
37.34000	0.00119
37.35000	0.00119
37.36000	0.00119
37.37000	0.00119
37.38000	0.00119
37.39000	0.00119
37.40000	0.00120
37.41000	0.00120
37.42000	0.00120
37.43000	0.00120
37.44000	0.00120
37.45000	0.00120
37.46000	0.00120
37.47000	0.00120
37.48000	0.00120
37.49000	0.00120
37.50000	0.00120
37.51000	0.00120
37.52000	0.00120
37.53000	0.00120
37.54000	0.00120
37.55000	0.00120
37.56000	0.00121
37.57000	0.00121
37.58000	0.00121
37.59000	0.00121
37.60000	0.00121
37.61000	0.00121
37.62000	0.00121
37.63000	0.00121
37.64000	0.00121
37.65000	0.00121
37.66000	0.00121
37.67000	0.00121
37.68000	0.00121
37.69000	0.00122
37.70000	0.00122
37.71000	0.00122
37.72000	0.00122
37.73000	0.00122
37.74000	0.00122
37.75000	0.00122
37.76000	0.00122
37.77000	0.00122
37.78000	0.00122
37.79000	0.00122
37.80000	0.00122
37.81000	0.00122
37.82000	0.00123
37.83000	0.00123
37.84000	0.00123
37.85000	0.00123
37.86000	0.00123
37.87000	0.00123
37.88000	0.00123
37.89000	0.00123
37.90000	0.00123
37.91000	0.00123
37.92000	0.00123
37.93000	0.00124
37.94000	0.00124
37.95000	0.00124
37.96000	0.00124
37.97000	0.00124
37.98000	0.00124
37.99000	0.00124
38.00000	0.00124
38.01000	0.00124
38.02000	0.00124
38.03000	0.00124
38.04000	0.00125
38.05000	0.00125
38.06000	0.00125
38.07000	0.00125
38.08000	0.00125
38.09000	0.00125
38.10000	0.00125
38.11000	0.00125
38.12000	0.00125
38.13000	0.00125
38.14000	0.00126
38.15000	0.00126
38.16000	0.00126
38.17000	0.00126
38.18000	0.00126
38.19000	0.00126
38.20000	0.00126
38.21000	0.00126
38.22000	0.00126
38.23000	0.00126
38.24000	0.00127
38.25000	0.00127
38.26000	0.00127
38.27000	0.00127
38.28000	0.00127
38.29000	0.00127
38.30000	0.00127
38.31000	0.00127
38.32000	0.00127
38.33000	0.00128
38.34000	0.00128
38.35000	0.00128
38.36000	0.00128
38.37000	0.00128
38.38000	0.00128
38.39000	0.00128
38.40000	0.00128
38.41000	0.00128
38.42000	0.00129
38.43000	0.00129
38.44000	0.00129
38.45000	0.00129
38.46000	0.00129
38.47000	0.00129
38.48000	0.00129
38.49000	0.00129
38.50000	0.00130
38.51000	0.00130
38.52000	0.00130
38.53000	0.00130
38.54000	0.00130
38.55000	0.00130
38.56000	0.00130
38.57000	0.00130
38.58000	0.00131
38.59000	0.00131
38.60000	0.00131
38.61000	0.00131
38.62000	0.00131
38.63000	0.00131
38.64000	0.00131
38.65000	0.00132
38.66000	0.00132
38.67000	0.00132
38.68000	0.00132
38.69000	0.00132
38.70000	0.00132
38.71000	0.00132
38.72000	0.00132
38.73000	0.00133
38.74000	0.00133
38.75000	0.00133
38.76000	0.00133
38.77000	0.00133
38.78000	0.00133
38.79000	0.00133
38.80000	0.00134
38.81000	0.00134
38.82000	0.00134
38.83000	0.00134
38.84000	0.00134
38.85000	0.00134
38.86000	0.00134
38.87000	0.00135
38.88000	0.00135
38.89000	0.00135
38.90000	0.00135
38.91000	0.00135
38.92000	0.00135
38.93000	0.00136
38.94000	0.00136
38.95000	0.00136
38.96000	0.00136
38.97000	0.00136
38.98000	0.00136
38.99000	0.00136
39.00000	0.00137
39.01000	0.00137
39.02000	0.00137
39.03000	0.00137
39.04000	0.00137
39.05000	0.00137
39.06000	0.00138
39.07000	0.00138
39.08000	0.00138
39.09000	0.00138
39.10000	0.00138
39.11000	0.00138
39.12000	0.00139
39.13000	0.00139
39.14000	0.00139
39.15000	0.00139
39.16000	0.00139
39.17000	0.00139
39.18000	0.00140
39.19000	0.00140
39.20000	0.00140
39.21000	0.00140
39.22000	0.00140
39.23000	0.00140
39.24000	0.00141
39.25000	0.00141
39.26000	0.00141
39.27000	0.00141
39.28000	0.00141
39.29000	0.00141
39.30000	0.00142
39.31000	0.00142
39.32000	0.00142
39.33000	0.00142
39.34000	0.00142
39.35000	0.00143
39.36000	0.00143
39.37000	0.00143
39.38000	0.00143
39.39000	0.00143
39.40000	0.00144
39.41000	0.00144
39.42000	0.00144
39.43000	0.00144
39.44000	0.00144
39.45000	0.00144
39.46000	0.00145
39.47000	0.00145
39.48000	0.00145
39.49000	0.00145
39.50000	0.00145
39.51000	0.00146
39.52000	0.00146
39.53000	0.00146
39.54000	0.00146
39.55000	0.00146
39.56000	0.00147
39.57000	0.00147
39.58000	0.00147
39.59000	0.00147
39.60000	0.00147
39.61000	0.00148
39.62000	0.00148
39.63000	0.00148
39.64000	0.00148
39.65000	0.00149
39.66000	0.00149
39.67000	0.00149
39.68000	0.00149
39.69000	0.00149
39.70000	0.00150
39.71000	0.00150
39.72000	0.00150
39.73000	0.00150
39.74000	0.00150
39.75000	0.00151
39.76000	0.00151
39.77000	0.00151
39.78000	0.00151
39.79000	0.00152
39.80000	0.00152
39.81000	0.00152
39.82000	0.00152
39.83000	0.00153
39.84000	0.00153
39.85000	0.00153
39.86000	0.00153
39.87000	0.00153
39.88000	0.00154
39.89000	0.00154
39.90000	0.00154
39.91000	0.00154
39.92000	0.00155
39.93000	0.00155
39.94000	0.00155
39.95000	0.00155
39.96000	0.00156
39.97000	0.00156
39.98000	0.00146
39.99000	0.00146
40.00000	0.00147
40.01000	0.00147
40.02000	0.00147
40.03000	0.00148
40.04000	0.00148
40.05000	0.00148
40.06000	0.00148
40.07000	0.00149
40.08000	0.00149
40.09000	0.00149
40.10000	0.00149
40.11000	0.00150
40.12000	0.00150
40.13000	0.00150
40.14000	0.00151
40.15000	0.00151
40.16000	0.00151
40.17000	0.00151
40.18000	0.00152
40.19000	0.00152
40.20000	0.00152
40.21000	0.00153
40.22000	0.00153
40.23000	0.00153
40.24000	0.00154
40.25000	0.00154
40.26000	0.00154
40.27000	0.00154
40.28000	0.00155
40.29000	0.00155
40.30000	0.00155
40.31000	0.00156
40.32000	0.00156
40.33000	0.00156
40.34000	0.00157
40.35000	0.00157
40.36000	0.00157
40.37000	0.00157
40.38000	0.00158
40.39000	0.00158
40.40000	0.00158
40.41000	0.00159
40.42000	0.00159
40.43000	0.00159
40.44000	0.00160
40.45000	0.00160
40.46000	0.00160
40.47000	0.00161
40.48000	0.00161
40.49000	0.00161
40.50000	0.00162
40.51000	0.00162
40.52000	0.00162
40.53000	0.00163
40.54000	0.00163
40.55000	0.00163
40.56000	0.00164
40.57000	0.00164
40.58000	0.00164
40.59000	0.00165
40.60000	0.00165
40.61000	0.00165
40.62000	0.00166
40.63000	0.00166
40.64000	0.00166
40.65000	0.00167
40.66000	0.00167
40.67000	0.00167
40.68000	0.00168
40.69000	0.00168
40.70000	0.00169
40.71000	0.00169
40.72000	0.00169
40.73000	0.00170
40.74000	0.00170
40.75000	0.00170
40.76000	0.00171
40.77000	0.00171
40.78000	0.00171
40.79000	0.00172
40.80000	0.00172
40.81000	0.00173
40.82000	0.00173
40.83000	0.00173
40.84000	0.00174
40.85000	0.00174
40.86000	0.00174
40.87000	0.00175
40.88000	0.00175
40.89000	0.00176
40.90000	0.00176
40.91000	0.00176
40.92000	0.00177
40.93000	0.00177
40.94000	0.00178
40.95000	0.00178
40.96000	0.00178
40.97000	0.00179
40.98000	0.00179
40.99000	0.00180
41.00000	0.00180
41.01000	0.00180
41.02000	0.00181
41.03000	0.00181
41.04000	0.00182
41.05000	0.00182
41.06000	0.00182
41.07000	0.00183
41.08000	0.00183
41.09000	0.00184
41.10000	0.00184
41.11000	0.00185
41.12000	0.00185
41.13000	0.00185
41.14000	0.00186
41.15000	0.00186
41.16000	0.00187
41.17000	0.00187
41.18000	0.00188
41.19000	0.00188
41.20000	0.00189
41.21000	0.00189
41.22000	0.00189
41.23000	0.00190
41.24000	0.00190
41.25000	0.00191
41.26000	0.00191
41.27000	0.00192
41.28000	0.00192
41.29000	0.00193
41.30000	0.00193
41.31000	0.00194
41.32000	0.00194
41.33000	0.00194
41.34000	0.00195
41.35000	0.00195
41.36000	0.00196
41.37000	0.00196
41.38000	0.00197
41.39000	0.00197
41.40000	0.00198
41.41000	0.00198
41.42000	0.00199
41.43000	0.00199
41.44000	0.00200
41.45000	0.00200
41.46000	0.00201
41.47000	0.00201
41.48000	0.00202
41.49000	0.00202
41.50000	0.00203
41.51000	0.00203
41.52000	0.00204
41.53000	0.00204
41.54000	0.00205
41.55000	0.00205
41.56000	0.00206
41.57000	0.00207
41.58000	0.00207
41.59000	0.00208
41.60000	0.00208
41.61000	0.00209
41.62000	0.00209
41.63000	0.00210
41.64000	0.00210
41.65000	0.00211
41.66000	0.00211
41.67000	0.00212
41.68000	0.00213
41.69000	0.00213
41.70000	0.00214
41.71000	0.00214
41.72000	0.00215
41.73000	0.00215
41.74000	0.00216
41.75000	0.00217
41.76000	0.00217
41.77000	0.00218
41.78000	0.00218
41.79000	0.00219
41.80000	0.00219
41.81000	0.00220
41.82000	0.00221
41.83000	0.00221
41.84000	0.00222
41.85000	0.00222
41.86000	0.00223
41.87000	0.00224
41.88000	0.00224
41.89000	0.00225
41.90000	0.00226
41.91000	0.00226
41.92000	0.00227
41.93000	0.00227
41.94000	0.00228
41.95000	0.00229
41.96000	0.00229
41.97000	0.00230
41.98000	0.00231
41.99000	0.00231
42.00000	0.00232
42.01000	0.00233
42.02000	0.00233
42.03000	0.00234
42.04000	0.00235
42.05000	0.00235
42.06000	0.00236
42.07000	0.00237
42.08000	0.00237
42.09000	0.00238
42.10000	0.00239
42.11000	0.00240
42.12000	0.00240
42.13000	0.00241
42.14000	0.00242
42.15000	0.00242
42.16000	0.00243
42.17000	0.00244
42.18000	0.00245
42.19000	0.00245
42.20000	0.00246
42.21000	0.00247
42.22000	0.00247
42.23000	0.00248
42.24000	0.00249
42.25000	0.00250
42.26000	0.00250
42.27000	0.00251
42.28000	0.00252
42.29000	0.00253
42.30000	0.00254
42.31000	0.00254
42.32000	0.00255
42.33000	0.00256
42.34000	0.00257
42.35000	0.00258
42.36000	0.00258
42.37000	0.00259
42.38000	0.00260
42.39000	0.00261
42.40000	0.00262
42.41000	0.00262
42.42000	0.00263
42.43000	0.00264
42.44000	0.00265
42.45000	0.00266
42.46000	0.00267
42.47000	0.00267
42.48000	0.00268
42.49000	0.00269
42.50000	0.00270
42.51000	0.00271
42.52000	0.00272
42.53000	0.00273
42.54000	0.00274
42.55000	0.00275
42.56000	0.00275
42.57000	0.00276
42.58000	0.00277
42.59000	0.00278
42.60000	0.00279
42.61000	0.00280
42.62000	0.00281
42.63000	0.00282
42.64000	0.00283
42.65000	0.00284
42.66000	0.00285
42.67000	0.00286
42.68000	0.00287
42.69000	0.00288
42.70000	0.00289
42.71000	0.00290
42.72000	0.00291
42.73000	0.00292
42.74000	0.00293
42.75000	0.00294
42.76000	0.00295
42.77000	0.00296
42.78000	0.00297
42.79000	0.00298
42.80000	0.00299
42.81000	0.00300
42.82000	0.00301
42.83000	0.00302
42.84000	0.00303
42.85000	0.00304
42.86000	0.00305
42.87000	0.00306
42.88000	0.00307
42.89000	0.00309
42.90000	0.00310
42.91000	0.00311
42.92000	0.00312
42.93000	0.00313
42.94000	0.00314
42.95000	0.00315
42.96000	0.00317
42.97000	0.00318
42.98000	0.00319
42.99000	0.00320
43.00000	0.00321
43.01000	0.00322
43.02000	0.00324
43.03000	0.00325
43.04000	0.00326
43.05000	0.00327
43.06000	0.00329
43.07000	0.00330
43.08000	0.00331
43.09000	0.00332
43.10000	0.00334
43.11000	0.00335
43.12000	0.00336
43.13000	0.00337
43.14000	0.00339
43.15000	0.00340
43.16000	0.00341
43.17000	0.00343
43.18000	0.00344
43.19000	0.00345
43.20000	0.00347
43.21000	0.00348
43.22000	0.00350
43.23000	0.00351
43.24000	0.00352
43.25000	0.00354
43.26000	0.00355
43.27000	0.00357
43.28000	0.00358
43.29000	0.00359
43.30000	0.00361
43.31000	0.00362
43.32000	0.00364
43.33000	0.00365
43.34000	0.00367
43.35000	0.00368
43.36000	0.00370
43.37000	0.00371
43.38000	0.00373
43.39000	0.00375
43.40000	0.00376
43.41000	0.00378
43.42000	0.00379
43.43000	0.00381
43.44000	0.00383
43.45000	0.00384
43.46000	0.00386
43.47000	0.00387
43.48000	0.00389
43.49000	0.00391
43.50000	0.00392
43.51000	0.00394
43.52000	0.00396
43.53000	0.00398
43.54000	0.00399
43.55000	0.00401
43.56000	0.00403
43.57000	0.00405
43.58000	0.00406
43.59000	0.00408
43.60000	0.00410
43.61000	0.00412
43.62000	0.00414
43.63000	0.00416
43.64000	0.00418
43.65000	0.00419
43.66000	0.00421
43.67000	0.00423
43.68000	0.00425
43.69000	0.00427
43.70000	0.00429
43.71000	0.00431
43.72000	0.00433
43.73000	0.00435
43.74000	0.00437
43.75000	0.00439
43.76000	0.00441
43.77000	0.00443
43.78000	0.00445
43.79000	0.00448
43.80000	0.00450
43.81000	0.00452
43.82000	0.00454
43.83000	0.00456
43.84000	0.00458
43.85000	0.00461
43.86000	0.00463
43.87000	0.00465
43.88000	0.00467
43.89000	0.00470
43.90000	0.00472
43.91000	0.00474
43.92000	0.00477
43.93000	0.00479
43.94000	0.00482
43.95000	0.00484
43.96000	0.00486
43.97000	0.00489
43.98000	0.00491
43.99000	0.00494
44.00000	0.00496
44.01000	0.00499
44.02000	0.00502
44.03000	0.00504
44.04000	0.00507
44.05000	0.00509
44.06000	0.00512
44.07000	0.00515
44.08000	0.00517
44.09000	0.00520
44.10000	0.00523
44.11000	0.00526
44.12000	0.00528
44.13000	0.00531
44.14000	0.00534
44.15000	0.00537
44.16000	0.00540
44.17000	0.00543
44.18000	0.00546
44.19000	0.00549
44.20000	0.00552
44.21000	0.00555
44.22000	0.00558
44.23000	0.00561
44.24000	0.00564
44.25000	0.00567
44.26000	0.00571
44.27000	0.00574
44.28000	0.00577
44.29000	0.00580
44.30000	0.00584
44.31000	0.00587
44.32000	0.00590
44.33000	0.00594
44.34000	0.00597
44.35000	0.00601
44.36000	0.00604
44.37000	0.00608
44.38000	0.00611
44.39000	0.00615
44.40000	0.00619
44.41000	0.00622
44.42000	0.00626
44.43000	0.00630
44.44000	0.00634
44.45000	0.00638
44.46000	0.00641
44.47000	0.00645
44.48000	0.00649
44.49000	0.00653
44.50000	0.00657
44.51000	0.00661
44.52000	0.00666
44.53000	0.00670
44.54000	0.00674
44.55000	0.00678
44.56000	0.00682
44.57000	0.00687
44.58000	0.00691
44.59000	0.00696
44.60000	0.00700
44.61000	0.00705
44.62000	0.00709
44.63000	0.00714
44.64000	0.00719
44.65000	0.00723
44.66000	0.00728
44.67000	0.00733
44.68000	0.00738
44.69000	0.00743
44.70000	0.00748
44.71000	0.00753
44.72000	0.00758
44.73000	0.00763
44.74000	0.00768
44.75000	0.00774
44.76000	0.00779
44.77000	0.00784
44.78000	0.00790
44.79000	0.00795
44.80000	0.00801
44.81000	0.00807
44.82000	0.00812
44.83000	0.00818
44.84000	0.00824
44.85000	0.00830
44.86000	0.00836
44.87000	0.00842
44.88000	0.00848
44.89000	0.00854
44.90000	0.00861
44.91000	0.00867
44.92000	0.00874
44.93000	0.00880
44.94000	0.00887
44.95000	0.00893
44.96000	0.00900
44.97000	0.00907
44.98000	0.00914
44.99000	0.00921
45.00000	0.00928
45.01000	0.00935
45.02000	0.00943
45.03000	0.00950
45.04000	0.00957
45.05000	0.00965
45.06000	0.00973
45.07000	0.00980
45.08000	0.00988
45.09000	0.00996
45.10000	0.01004
45.11000	0.01013
45.12000	0.01021
45.13000	0.01029
45.14000	0.01038
45.15000	0.01046
45.16000	0.01055
45.17000	0.01064
45.18000	0.01073
45.19000	0.01082
45.20000	0.01091
45.21000	0.01101
45.22000	0.01110
45.23000	0.01120
45.24000	0.01130
45.25000	0.01140
45.26000	0.01150
45.27000	0.01160
45.28000	0.01170
45.29000	0.01181
45.30000	0.01191
45.31000	0.01202
45.32000	0.01213
45.33000	0.01224
45.34000	0.01235
45.35000	0.01247
45.36000	0.01258
45.37000	0.01270
45.38000	0.01282
45.39000	0.01294
45.40000	0.01307
45.41000	0.01319
45.42000	0.01332
45.43000	0.01345
45.44000	0.01358
45.45000	0.01371
45.46000	0.01385
45.47000	0.01398
45.48000	0.01412
45.49000	0.01426
45.50000	0.01441
45.51000	0.01455
45.52000	0.01470
45.53000	0.01485
45.54000	0.01501
45.55000	0.01516
45.56000	0.01532
45.57000	0.01548
45.58000	0.01565
45.59000	0.01582
45.60000	0.01599
45.61000	0.01616
45.62000	0.01633
45.63000	0.01651
45.64000	0.01669
45.65000	0.01688
45.66000	0.01707
45.67000	0.01726
45.68000	0.01745
45.69000	0.01765
45.70000	0.01786
45.71000	0.01806
45.72000	0.01827
45.73000	0.01848
45.74000	0.01870
45.75000	0.01892
45.76000	0.01915
45.77000	0.01938
45.78000	0.01961
45.79000	0.01985
45.80000	0.02010
45.81000	0.02034
45.82000	0.02060
45.83000	0.02085
45.84000	0.02112
45.85000	0.02139
45.86000	0.02166
45.87000	0.02194
45.88000	0.02222
45.89000	0.02252
45.90000	0.02281
45.91000	0.02312
45.92000	0.02342
45.93000	0.02374
45.94000	0.02406
45.95000	0.02439
45.96000	0.02473
45.97000	0.02507
45.98000	0.02543
45.99000	0.02579
46.00000	0.02615
46.01000	0.02653
46.02000	0.02691
46.03000	0.02731
46.04000	0.02771
46.05000	0.02812
46.06000	0.02854
46.07000	0.02897
46.08000	0.02941
46.09000	0.02986
46.10000	0.03033
46.11000	0.03080
46.12000	0.03128
46.13000	0.03178
46.14000	0.03229
46.15000	0.03281
46.16000	0.03335
46.17000	0.03390
46.18000	0.03446
46.19000	0.03504
46.20000	0.03564
46.21000	0.03624
46.22000	0.03687
46.23000	0.03751
46.24000	0.03817
46.25000	0.03885
46.26000	0.03955
46.27000	0.04027
46.28000	0.04100
46.29000	0.04176
46.30000	0.04254
46.31000	0.04334
46.32000	0.04417
46.33000	0.04502
46.34000	0.04590
46.35000	0.04680
46.36000	0.04773
46.37000	0.04869
46.38000	0.04968
46.39000	0.05070
46.40000	0.05176
46.41000	0.05285
46.42000	0.05397
46.43000	0.05513
46.44000	0.05633
46.45000	0.05757
46.46000	0.05886
46.47000	0.06019
46.48000	0.06156
46.49000	0.06299
46.50000	0.06446
46.51000	0.06599
46.52000	0.06758
46.53000	0.06922
46.54000	0.07093
46.55000	0.07270
46.56000	0.07454
46.57000	0.07646
46.58000	0.07845
46.59000	0.08052
46.60000	0.08268
46.61000	0.08493
46.62000	0.08727
46.63000	0.08971
46.64000	0.09226
46.65000	0.09492
46.66000	0.09770
46.67000	0.10061
46.68000	0.10365
46.69000	0.10684
46.70000	0.11018
46.71000	0.11368
46.72000	0.11735
46.73000	0.12121
46.74000	0.12526
46.75000	0.12953
46.76000	0.13403
46.77000	0.13876
46.78000	0.14376
46.79000	0.14904
46.80000	0.15462
46.81000	0.16052
46.82000	0.16678
46.83000	0.17342
46.84000	0.18047
46.85000	0.18797
46.86000	0.19596
46.87000	0.20447
46.88000	0.21356
46.89000	0.22329
46.90000	0.23371
46.91000	0.24489
46.92000	0.25691
46.93000	0.26986
46.94000	0.28382
46.95000	0.29893
46.96000	0.31529
46.97000	0.33307
46.98000	0.35242
46.99000	0.37355
47.00000	0.39667
47.01000	0.42206
47.02000	0.45001
47.03000	0.48090
47.04000	0.51515
47.05000	0.55327
47.06000	0.59588
47.07000	0.64371
47.08000	0.69768
47.09000	0.75888
47.10000	0.82869
47.11000	0.90881
47.12000	1.00141
47.13000	1.10922
47.14000	1.23583
47.15000	1.38588
47.16000	1.56557
47.17000	1.78330
47.18000	2.05061
47.19000	2.38391
47.20000	2.80745
47.21000	3.36008
47.22000	4.11054
47.23000	5.19049
47.24000	6.85073
47.25000	9.52308
47.26000     13.82465
47.27000     20.40741
47.28000     29.52327
47.29000     39.93237
47.30000     47.09231
47.31000     45.44533
47.32000     36.61809
47.33000     26.69691
47.34000     18.89790
47.35000     13.77417
47.36000     10.95959
47.37000	9.98191
47.38000     10.57864
47.39000     12.71826
47.40000     16.37790
47.41000     21.01013
47.42000     24.59794
47.43000     24.17812
47.44000     19.84777
47.45000     14.56237
47.46000     10.17701
47.47000	7.07425
47.48000	5.05541
47.49000	3.78725
47.50000	2.97845
47.51000	2.43369
47.52000	2.04203
47.53000	1.74530
47.54000	1.51244
47.55000	1.32538
47.56000	1.17245
47.57000	1.04563
47.58000	0.93915
47.59000	0.84878
47.60000	0.77135
47.61000	0.70444
47.62000	0.64618
47.63000	0.59510
47.64000	0.55004
47.65000	0.51006
47.66000	0.47441
47.67000	0.44248
47.68000	0.41375
47.69000	0.38779
47.70000	0.36426
47.71000	0.34286
47.72000	0.32333
47.73000	0.30545
47.74000	0.28904
47.75000	0.27395
47.76000	0.26002
47.77000	0.24715
47.78000	0.23523
47.79000	0.22416
47.80000	0.21386
47.81000	0.20427
47.82000	0.19531
47.83000	0.18694
47.84000	0.17910
47.85000	0.17175
47.86000	0.16485
47.87000	0.15836
47.88000	0.15225
47.89000	0.14649
47.90000	0.14105
47.91000	0.13591
47.92000	0.13105
47.93000	0.12645
47.94000	0.12209
47.95000	0.11795
47.96000	0.11402
47.97000	0.11028
47.98000	0.10673
47.99000	0.10334
48.00000	0.10012
48.01000	0.09704
48.02000	0.09411
48.03000	0.09131
48.04000	0.08863
48.05000	0.08607
48.06000	0.08361
48.07000	0.08127
48.08000	0.07902
48.09000	0.07686
48.10000	0.07479
48.11000	0.07280
48.12000	0.07089
48.13000	0.06906
48.14000	0.06730
48.15000	0.06560
48.16000	0.06397
48.17000	0.06240
48.18000	0.06088
48.19000	0.05942
48.20000	0.05802
48.21000	0.05666
48.22000	0.05535
48.23000	0.05408
48.24000	0.05286
48.25000	0.05168
48.26000	0.05054
48.27000	0.04944
48.28000	0.04837
48.29000	0.04734
48.30000	0.04634
48.31000	0.04537
48.32000	0.04443
48.33000	0.04352
48.34000	0.04264
48.35000	0.04179
48.36000	0.04096
48.37000	0.04015
48.38000	0.03937
48.39000	0.03861
48.40000	0.03788
48.41000	0.03716
48.42000	0.03647
48.43000	0.03580
48.44000	0.03514
48.45000	0.03450
48.46000	0.03388
48.47000	0.03332
48.48000	0.03273
48.49000	0.03216
48.50000	0.03160
48.51000	0.03106
48.52000	0.03053
48.53000	0.03002
48.54000	0.02952
48.55000	0.02903
48.56000	0.02855
48.57000	0.02809
48.58000	0.02763
48.59000	0.02719
48.60000	0.02676
48.61000	0.02634
48.62000	0.02593
48.63000	0.02553
48.64000	0.02514
48.65000	0.02475
48.66000	0.02438
48.67000	0.02402
48.68000	0.02366
48.69000	0.02331
48.70000	0.02297
48.71000	0.02264
48.72000	0.02231
48.73000	0.02199
48.74000	0.02168
48.75000	0.02138
48.76000	0.02108
48.77000	0.02079
48.78000	0.02050
48.79000	0.02022
48.80000	0.01995
48.81000	0.01968
48.82000	0.01942
48.83000	0.01916
48.84000	0.01891
48.85000	0.01867
48.86000	0.01843
48.87000	0.01819
48.88000	0.01796
48.89000	0.01773
48.90000	0.01751
48.91000	0.01729
48.92000	0.01708
48.93000	0.01687
48.94000	0.01666
48.95000	0.01646
48.96000	0.01626
48.97000	0.01607
48.98000	0.01587
48.99000	0.01569
49.00000	0.01550
49.01000	0.01532
49.02000	0.01515
49.03000	0.01497
49.04000	0.01480
49.05000	0.01464
49.06000	0.01447
49.07000	0.01431
49.08000	0.01415
49.09000	0.01400
49.10000	0.01384
49.11000	0.01369
49.12000	0.01354
49.13000	0.01340
49.14000	0.01326
49.15000	0.01312
49.16000	0.01298
49.17000	0.01284
49.18000	0.01271
49.19000	0.01258
49.20000	0.01245
49.21000	0.01232
49.22000	0.01220
49.23000	0.01208
49.24000	0.01196
49.25000	0.01184
49.26000	0.01172
49.27000	0.01161
49.28000	0.01149
49.29000	0.01138
49.30000	0.01127
49.31000	0.01117
49.32000	0.01106
49.33000	0.01096
49.34000	0.01085
49.35000	0.01075
49.36000	0.01065
49.37000	0.01056
49.38000	0.01046
49.39000	0.01037
49.40000	0.01027
49.41000	0.01018
49.42000	0.01009
49.43000	0.01000
49.44000	0.00991
49.45000	0.00983
49.46000	0.00974
49.47000	0.00966
49.48000	0.00957
49.49000	0.00949
49.50000	0.00941
49.51000	0.00933
49.52000	0.00926
49.53000	0.00918
49.54000	0.00910
49.55000	0.00903
49.56000	0.00896
49.57000	0.00888
49.58000	0.00881
49.59000	0.00874
49.60000	0.00867
49.61000	0.00860
49.62000	0.00854
49.63000	0.00847
49.64000	0.00840
49.65000	0.00834
49.66000	0.00827
49.67000	0.00821
49.68000	0.00815
49.69000	0.00809
49.70000	0.00803
49.71000	0.00797
49.72000	0.00791
49.73000	0.00785
49.74000	0.00779
49.75000	0.00774
49.76000	0.00768
49.77000	0.00763
49.78000	0.00757
49.79000	0.00752
49.80000	0.00747
49.81000	0.00742
49.82000	0.00736
49.83000	0.00731
49.84000	0.00726
49.85000	0.00721
49.86000	0.00717
49.87000	0.00712
49.88000	0.00707
49.89000	0.00702
49.90000	0.00698
49.91000	0.00693
49.92000	0.00689
49.93000	0.00684
49.94000	0.00680
49.95000	0.00676
49.96000	0.00671
49.97000	0.00667
49.98000	0.00663
49.99000	0.00659
50.00000	0.00655
50.01000	0.00651
50.02000	0.00647
50.03000	0.00643
50.04000	0.00639
50.05000	0.00635
50.06000	0.00631
50.07000	0.00628
50.08000	0.00624
50.09000	0.00620
50.10000	0.00617
50.11000	0.00613
50.12000	0.00610
50.13000	0.00606
50.14000	0.00603
50.15000	0.00600
50.16000	0.00596
50.17000	0.00593
50.18000	0.00590
50.19000	0.00587
50.20000	0.00583
50.21000	0.00580
50.22000	0.00577
50.23000	0.00574
50.24000	0.00571
50.25000	0.00568
50.26000	0.00565
50.27000	0.00562
50.28000	0.00560
50.29000	0.00557
50.30000	0.00554
50.31000	0.00551
50.32000	0.00548
50.33000	0.00546
50.34000	0.00543
50.35000	0.00540
50.36000	0.00538
50.37000	0.00535
50.38000	0.00533
50.39000	0.00530
50.40000	0.00528
50.41000	0.00525
50.42000	0.00523
50.43000	0.00521
50.44000	0.00518
50.45000	0.00516
50.46000	0.00514
50.47000	0.00511
50.48000	0.00509
50.49000	0.00507
50.50000	0.00505
50.51000	0.00503
50.52000	0.00500
50.53000	0.00498
50.54000	0.00496
50.55000	0.00494
50.56000	0.00492
50.57000	0.00490
50.58000	0.00488
50.59000	0.00486
50.60000	0.00484
50.61000	0.00482
50.62000	0.00481
50.63000	0.00479
50.64000	0.00477
50.65000	0.00475
50.66000	0.00473
50.67000	0.00471
50.68000	0.00470
50.69000	0.00468
50.70000	0.00466
50.71000	0.00465
50.72000	0.00463
50.73000	0.00461
50.74000	0.00460
50.75000	0.00458
50.76000	0.00457
50.77000	0.00455
50.78000	0.00453
50.79000	0.00452
50.80000	0.00450
50.81000	0.00449
50.82000	0.00448
50.83000	0.00446
50.84000	0.00445
50.85000	0.00443
50.86000	0.00442
50.87000	0.00441
50.88000	0.00439
50.89000	0.00438
50.90000	0.00437
50.91000	0.00435
50.92000	0.00434
50.93000	0.00433
50.94000	0.00432
50.95000	0.00430
50.96000	0.00429
50.97000	0.00428
50.98000	0.00427
50.99000	0.00426
51.00000	0.00424
51.01000	0.00423
51.02000	0.00422
51.03000	0.00421
51.04000	0.00420
51.05000	0.00419
51.06000	0.00418
51.07000	0.00417
51.08000	0.00416
51.09000	0.00415
51.10000	0.00414
51.11000	0.00413
51.12000	0.00412
51.13000	0.00411
51.14000	0.00410
51.15000	0.00409
51.16000	0.00408
51.17000	0.00408
51.18000	0.00407
51.19000	0.00406
51.20000	0.00405
51.21000	0.00404
51.22000	0.00403
51.23000	0.00403
51.24000	0.00402
51.25000	0.00401
51.26000	0.00400
51.27000	0.00400
51.28000	0.00399
51.29000	0.00398
51.30000	0.00398
51.31000	0.00397
51.32000	0.00396
51.33000	0.00396
51.34000	0.00395
51.35000	0.00394
51.36000	0.00394
51.37000	0.00393
51.38000	0.00393
51.39000	0.00392
51.40000	0.00391
51.41000	0.00391
51.42000	0.00390
51.43000	0.00390
51.44000	0.00389
51.45000	0.00389
51.46000	0.00388
51.47000	0.00388
51.48000	0.00387
51.49000	0.00387
51.50000	0.00387
51.51000	0.00386
51.52000	0.00386
51.53000	0.00385
51.54000	0.00385
51.55000	0.00385
51.56000	0.00384
51.57000	0.00384
51.58000	0.00384
51.59000	0.00383
51.60000	0.00383
51.61000	0.00383
51.62000	0.00382
51.63000	0.00382
51.64000	0.00382
51.65000	0.00382
51.66000	0.00381
51.67000	0.00381
51.68000	0.00381
51.69000	0.00381
51.70000	0.00380
51.71000	0.00380
51.72000	0.00380
51.73000	0.00380
51.74000	0.00380
51.75000	0.00380
51.76000	0.00380
51.77000	0.00379
51.78000	0.00379
51.79000	0.00379
51.80000	0.00379
51.81000	0.00379
51.82000	0.00379
51.83000	0.00379
51.84000	0.00379
51.85000	0.00379
51.86000	0.00379
51.87000	0.00379
51.88000	0.00379
51.89000	0.00379
51.90000	0.00379
51.91000	0.00379
51.92000	0.00379
51.93000	0.00379
51.94000	0.00379
51.95000	0.00379
51.96000	0.00379
51.97000	0.00380
51.98000	0.00380
51.99000	0.00380
52.00000	0.00380
52.01000	0.00380
52.02000	0.00380
52.03000	0.00380
52.04000	0.00381
52.05000	0.00381
52.06000	0.00381
52.07000	0.00381
52.08000	0.00382
52.09000	0.00382
52.10000	0.00382
52.11000	0.00382
52.12000	0.00383
52.13000	0.00383
52.14000	0.00383
52.15000	0.00384
52.16000	0.00384
52.17000	0.00384
52.18000	0.00385
52.19000	0.00385
52.20000	0.00385
52.21000	0.00386
52.22000	0.00386
52.23000	0.00387
52.24000	0.00387
52.25000	0.00387
52.26000	0.00388
52.27000	0.00388
52.28000	0.00389
52.29000	0.00389
52.30000	0.00390
52.31000	0.00390
52.32000	0.00391
52.33000	0.00391
52.34000	0.00392
52.35000	0.00393
52.36000	0.00393
52.37000	0.00394
52.38000	0.00394
52.39000	0.00395
52.40000	0.00396
52.41000	0.00396
52.42000	0.00397
52.43000	0.00398
52.44000	0.00398
52.45000	0.00399
52.46000	0.00400
52.47000	0.00401
52.48000	0.00401
52.49000	0.00402
52.50000	0.00403
52.51000	0.00404
52.52000	0.00404
52.53000	0.00405
52.54000	0.00406
52.55000	0.00407
52.56000	0.00412
52.57000	0.00413
52.58000	0.00414
52.59000	0.00415
52.60000	0.00416
52.61000	0.00417
52.62000	0.00418
52.63000	0.00419
52.64000	0.00420
52.65000	0.00421
52.66000	0.00422
52.67000	0.00423
52.68000	0.00424
52.69000	0.00425
52.70000	0.00426
52.71000	0.00427
52.72000	0.00428
52.73000	0.00429
52.74000	0.00430
52.75000	0.00432
52.76000	0.00433
52.77000	0.00434
52.78000	0.00435
52.79000	0.00436
52.80000	0.00438
52.81000	0.00439
52.82000	0.00440
52.83000	0.00442
52.84000	0.00443
52.85000	0.00444
52.86000	0.00446
52.87000	0.00447
52.88000	0.00448
52.89000	0.00450
52.90000	0.00451
52.91000	0.00453
52.92000	0.00454
52.93000	0.00456
52.94000	0.00457
52.95000	0.00459
52.96000	0.00460
52.97000	0.00462
52.98000	0.00463
52.99000	0.00465
53.00000	0.00466
53.01000	0.00468
53.02000	0.00470
53.03000	0.00471
53.04000	0.00473
53.05000	0.00475
53.06000	0.00477
53.07000	0.00478
53.08000	0.00480
53.09000	0.00482
53.10000	0.00484
53.11000	0.00486
53.12000	0.00488
53.13000	0.00490
53.14000	0.00492
53.15000	0.00494
53.16000	0.00496
53.17000	0.00498
53.18000	0.00500
53.19000	0.00502
53.20000	0.00504
53.21000	0.00506
53.22000	0.00508
53.23000	0.00510
53.24000	0.00513
53.25000	0.00515
53.26000	0.00517
53.27000	0.00519
53.28000	0.00522
53.29000	0.00524
53.30000	0.00526
53.31000	0.00529
53.32000	0.00531
53.33000	0.00534
53.34000	0.00536
53.35000	0.00539
53.36000	0.00541
53.37000	0.00544
53.38000	0.00547
53.39000	0.00549
53.40000	0.00552
53.41000	0.00555
53.42000	0.00557
53.43000	0.00560
53.44000	0.00563
53.45000	0.00566
53.46000	0.00569
53.47000	0.00572
53.48000	0.00575
53.49000	0.00578
53.50000	0.00581
53.51000	0.00584
53.52000	0.00587
53.53000	0.00590
53.54000	0.00594
53.55000	0.00597
53.56000	0.00600
53.57000	0.00604
53.58000	0.00607
53.59000	0.00610
53.60000	0.00614
53.61000	0.00617
53.62000	0.00621
53.63000	0.00625
53.64000	0.00628
53.65000	0.00632
53.66000	0.00636
53.67000	0.00640
53.68000	0.00643
53.69000	0.00647
53.70000	0.00651
53.71000	0.00655
53.72000	0.00659
53.73000	0.00664
53.74000	0.00668
53.75000	0.00672
53.76000	0.00676
53.77000	0.00681
53.78000	0.00685
53.79000	0.00690
53.80000	0.00694
53.81000	0.00699
53.82000	0.00703
53.83000	0.00708
53.84000	0.00713
53.85000	0.00718
53.86000	0.00723
53.87000	0.00728
53.88000	0.00733
53.89000	0.00738
53.90000	0.00743
53.91000	0.00748
53.92000	0.00754
53.93000	0.00759
53.94000	0.00765
53.95000	0.00770
53.96000	0.00776
53.97000	0.00782
53.98000	0.00787
53.99000	0.00793
54.00000	0.00799
54.01000	0.00805
54.02000	0.00811
54.03000	0.00818
54.04000	0.00824
54.05000	0.00831
54.06000	0.00837
54.07000	0.00844
54.08000	0.00850
54.09000	0.00857
54.10000	0.00864
54.11000	0.00871
54.12000	0.00878
54.13000	0.00886
54.14000	0.00893
54.15000	0.00900
54.16000	0.00908
54.17000	0.00916
54.18000	0.00924
54.19000	0.00932
54.20000	0.00940
54.21000	0.00948
54.22000	0.00956
54.23000	0.00965
54.24000	0.00973
54.25000	0.00982
54.26000	0.00991
54.27000	0.01000
54.28000	0.01009
54.29000	0.01018
54.30000	0.01028
54.31000	0.01038
54.32000	0.01047
54.33000	0.01057
54.34000	0.01067
54.35000	0.01078
54.36000	0.01088
54.37000	0.01099
54.38000	0.01110
54.39000	0.01121
54.40000	0.01132
54.41000	0.01143
54.42000	0.01155
54.43000	0.01167
54.44000	0.01179
54.45000	0.01191
54.46000	0.01203
54.47000	0.01216
54.48000	0.01229
54.49000	0.01242
54.50000	0.01255
54.51000	0.01269
54.52000	0.01283
54.53000	0.01297
54.54000	0.01311
54.55000	0.01326
54.56000	0.01341
54.57000	0.01356
54.58000	0.01372
54.59000	0.01387
54.60000	0.01403
54.61000	0.01420
54.62000	0.01437
54.63000	0.01454
54.64000	0.01471
54.65000	0.01489
54.66000	0.01507
54.67000	0.01525
54.68000	0.01544
54.69000	0.01564
54.70000	0.01583
54.71000	0.01603
54.72000	0.01624
54.73000	0.01645
54.74000	0.01666
54.75000	0.01688
54.76000	0.01710
54.77000	0.01733
54.78000	0.01756
54.79000	0.01780
54.80000	0.01804
54.81000	0.01829
54.82000	0.01854
54.83000	0.01880
54.84000	0.01907
54.85000	0.01934
54.86000	0.01962
54.87000	0.01990
54.88000	0.02019
54.89000	0.02049
54.90000	0.02079
54.91000	0.02110
54.92000	0.02142
54.93000	0.02175
54.94000	0.02209
54.95000	0.02243
54.96000	0.02278
54.97000	0.02315
54.98000	0.02352
54.99000	0.02390
55.00000	0.02429
55.01000	0.02469
55.02000	0.02510
55.03000	0.02552
55.04000	0.02595
55.05000	0.02640
55.06000	0.02685
55.07000	0.02732
55.08000	0.02781
55.09000	0.02830
55.10000	0.02881
55.11000	0.02934
55.12000	0.02988
55.13000	0.03043
55.14000	0.03101
55.15000	0.03160
55.16000	0.03220
55.17000	0.03283
55.18000	0.03347
55.19000	0.03414
55.20000	0.03482
55.21000	0.03553
55.22000	0.03626
55.23000	0.03701
55.24000	0.03779
55.25000	0.03860
55.26000	0.03943
55.27000	0.04029
55.28000	0.04118
55.29000	0.04210
55.30000	0.04305
55.31000	0.04404
55.32000	0.04506
55.33000	0.04612
55.34000	0.04721
55.35000	0.04835
55.36000	0.04953
55.37000	0.05076
55.38000	0.05204
55.39000	0.05336
55.40000	0.05474
55.41000	0.05617
55.42000	0.05767
55.43000	0.05922
55.44000	0.06084
55.45000	0.06253
55.46000	0.06429
55.47000	0.06614
55.48000	0.06806
55.49000	0.07007
55.50000	0.07217
55.51000	0.07438
55.52000	0.07669
55.53000	0.07911
55.54000	0.08164
55.55000	0.08431
55.56000	0.08711
55.57000	0.09006
55.58000	0.09317
55.59000	0.09644
55.60000	0.09989
55.61000	0.10354
55.62000	0.10739
55.63000	0.11147
55.64000	0.11579
55.65000	0.12037
55.66000	0.12524
55.67000	0.13041
55.68000	0.13592
55.69000	0.14180
55.70000	0.14807
55.71000	0.15478
55.72000	0.16196
55.73000	0.16967
55.74000	0.17796
55.75000	0.18688
55.76000	0.19651
55.77000	0.20691
55.78000	0.21819
55.79000	0.23043
55.80000	0.24376
55.81000	0.25830
55.82000	0.27422
55.83000	0.29169
55.84000	0.31093
55.85000	0.33218
55.86000	0.35573
55.87000	0.38194
55.88000	0.41123
55.89000	0.44410
55.90000	0.48116
55.91000	0.52318
55.92000	0.57108
55.93000	0.62602
55.94000	0.68946
55.95000	0.76326
55.96000	0.84982
55.97000	0.95225
55.98000	1.07471
55.99000	1.22280
56.00000	1.40438
56.01000	1.63110
56.02000	1.92141
56.03000	2.30672
56.04000	2.84198
56.05000	3.62030
56.06000	4.78610
56.07000	6.53392
56.08000	9.07651
56.09000     12.56216
56.10000     16.88811
56.11000     21.29554
56.12000     23.99443
56.13000     23.26943
56.14000     19.68214
56.15000     15.27376
56.16000     11.40778
56.17000	8.50784
56.18000	6.55234
56.19000	5.38095
56.20000	4.83304
56.21000	4.81075
56.22000	5.29242
56.23000	6.30558
56.24000	7.86399
56.25000	9.84529
56.26000     11.76122
56.27000     12.64509
56.28000     11.80450
56.29000	9.74615
56.30000	7.46283
56.31000	5.51474
56.32000	4.04283
56.33000	3.00428
56.34000	2.29863
56.35000	1.82276
56.36000	1.49464
56.37000	1.25859
56.38000	1.08067
56.39000	0.94126
56.40000	0.82893
56.41000	0.73661
56.42000	0.65962
56.43000	0.59464
56.44000	0.53924
56.45000	0.49157
56.46000	0.45023
56.47000	0.41411
56.48000	0.38234
56.49000	0.35424
56.50000	0.32924
56.51000	0.30690
56.52000	0.28683
56.53000	0.26874
56.54000	0.25236
56.55000	0.23749
56.56000	0.22392
56.57000	0.21153
56.58000	0.20016
56.59000	0.18970
56.60000	0.18007
56.61000	0.17117
56.62000	0.16293
56.63000	0.15528
56.64000	0.14817
56.65000	0.14155
56.66000	0.13537
56.67000	0.12959
56.68000	0.12418
56.69000	0.11911
56.70000	0.11435
56.71000	0.10988
56.72000	0.10566
56.73000	0.10169
56.74000	0.09794
56.75000	0.09439
56.76000	0.09104
56.77000	0.08787
56.78000	0.08486
56.79000	0.08200
56.80000	0.07929
56.81000	0.07671
56.82000	0.07426
56.83000	0.07192
56.84000	0.06969
56.85000	0.06757
56.86000	0.06554
56.87000	0.06360
56.88000	0.06175
56.89000	0.05998
56.90000	0.05829
56.91000	0.05666
56.92000	0.05511
56.93000	0.05361
56.94000	0.05218
56.95000	0.05081
56.96000	0.04949
56.97000	0.04822
56.98000	0.04699
56.99000	0.04582
57.00000	0.04469
57.01000	0.04360
57.02000	0.04255
57.03000	0.04154
57.04000	0.04056
57.05000	0.03962
57.06000	0.03871
57.07000	0.03783
57.08000	0.03698
57.09000	0.03616
57.10000	0.03537
57.11000	0.03460
57.12000	0.03386
57.13000	0.03314
57.14000	0.03245
57.15000	0.03177
57.16000	0.03112
57.17000	0.03049
57.18000	0.02987
57.19000	0.02928
57.20000	0.02870
57.21000	0.02814
57.22000	0.02759
57.23000	0.02707
57.24000	0.02655
57.25000	0.02605
57.26000	0.02557
57.27000	0.02510
57.28000	0.02464
57.29000	0.02420
57.30000	0.02376
57.31000	0.02334
57.32000	0.02293
57.33000	0.02253
57.34000	0.02214
57.35000	0.02176
57.36000	0.02139
57.37000	0.02103
57.38000	0.02068
57.39000	0.02034
57.40000	0.02000
57.41000	0.01968
57.42000	0.01936
57.43000	0.01905
57.44000	0.01875
57.45000	0.01845
57.46000	0.01816
57.47000	0.01788
57.48000	0.01761
57.49000	0.01734
57.50000	0.01708
57.51000	0.01682
57.52000	0.01657
57.53000	0.01632
57.54000	0.01608
57.55000	0.01585
57.56000	0.01562
57.57000	0.01540
57.58000	0.01518
57.59000	0.01496
57.60000	0.01475
57.61000	0.01455
57.62000	0.01435
57.63000	0.01415
57.64000	0.01396
57.65000	0.01377
57.66000	0.01358
57.67000	0.01340
57.68000	0.01322
57.69000	0.01305
57.70000	0.01288
57.71000	0.01271
57.72000	0.01255
57.73000	0.01238
57.74000	0.01223
57.75000	0.01207
57.76000	0.01192
57.77000	0.01177
57.78000	0.01163
57.79000	0.01148
57.80000	0.01134
57.81000	0.01120
57.82000	0.01107
57.83000	0.01094
57.84000	0.01080
57.85000	0.01068
57.86000	0.01055
57.87000	0.01043
57.88000	0.01031
57.89000	0.01019
57.90000	0.01007
57.91000	0.00995
57.92000	0.00984
57.93000	0.00973
57.94000	0.00962
57.95000	0.00951
57.96000	0.00941
57.97000	0.00930
57.98000	0.00920
57.99000	0.00910
58.00000	0.00900
58.01000	0.00891
58.02000	0.00881
58.03000	0.00872
58.04000	0.00862
58.05000	0.00853
58.06000	0.00844
58.07000	0.00836
58.08000	0.00827
58.09000	0.00818
58.10000	0.00810
58.11000	0.00802
58.12000	0.00794
58.13000	0.00786
58.14000	0.00778
58.15000	0.00770
58.16000	0.00762
58.17000	0.00755
58.18000	0.00747
58.19000	0.00740
58.20000	0.00733
58.21000	0.00726
58.22000	0.00719
58.23000	0.00712
58.24000	0.00705
58.25000	0.00699
58.26000	0.00692
58.27000	0.00686
58.28000	0.00679
58.29000	0.00673
58.30000	0.00667
58.31000	0.00661
58.32000	0.00655
58.33000	0.00649
58.34000	0.00643
58.35000	0.00637
58.36000	0.00631
58.37000	0.00626
58.38000	0.00620
58.39000	0.00615
58.40000	0.00609
58.41000	0.00604
58.42000	0.00599
58.43000	0.00593
58.44000	0.00588
58.45000	0.00583
58.46000	0.00578
58.47000	0.00573
58.48000	0.00569
58.49000	0.00564
58.50000	0.00559
58.51000	0.00555
58.52000	0.00550
58.53000	0.00545
58.54000	0.00541
58.55000	0.00536
58.56000	0.00532
58.57000	0.00528
58.58000	0.00524
58.59000	0.00519
58.60000	0.00515
58.61000	0.00511
58.62000	0.00507
58.63000	0.00503
58.64000	0.00499
58.65000	0.00495
58.66000	0.00491
58.67000	0.00488
58.68000	0.00484
58.69000	0.00480
58.70000	0.00477
58.71000	0.00473
58.72000	0.00469
58.73000	0.00466
58.74000	0.00462
58.75000	0.00459
58.76000	0.00449
58.77000	0.00445
58.78000	0.00442
58.79000	0.00439
58.80000	0.00435
58.81000	0.00432
58.82000	0.00429
58.83000	0.00426
58.84000	0.00423
58.85000	0.00420
58.86000	0.00417
58.87000	0.00414
58.88000	0.00411
58.89000	0.00408
58.90000	0.00405
58.91000	0.00402
58.92000	0.00399
58.93000	0.00397
58.94000	0.00394
58.95000	0.00391
58.96000	0.00388
58.97000	0.00386
58.98000	0.00383
58.99000	0.00380
59.00000	0.00378
59.01000	0.00380
59.02000	0.00377
59.03000	0.00375
59.04000	0.00372
59.05000	0.00370
59.06000	0.00368
59.07000	0.00365
59.08000	0.00363
59.09000	0.00360
59.10000	0.00358
59.11000	0.00356
59.12000	0.00354
59.13000	0.00351
59.14000	0.00349
59.15000	0.00347
59.16000	0.00345
59.17000	0.00343
59.18000	0.00340
59.19000	0.00338
59.20000	0.00336
59.21000	0.00334
59.22000	0.00332
59.23000	0.00330
59.24000	0.00328
59.25000	0.00326
59.26000	0.00324
59.27000	0.00322
59.28000	0.00320
59.29000	0.00318
59.30000	0.00317
59.31000	0.00315
59.32000	0.00313
59.33000	0.00311
59.34000	0.00309
59.35000	0.00307
59.36000	0.00306
59.37000	0.00304
59.38000	0.00302
59.39000	0.00300
59.40000	0.00299
59.41000	0.00297
59.42000	0.00295
59.43000	0.00294
59.44000	0.00292
59.45000	0.00290
59.46000	0.00289
59.47000	0.00287
59.48000	0.00286
59.49000	0.00284
59.50000	0.00282
59.51000	0.00281
59.52000	0.00279
59.53000	0.00278
59.54000	0.00276
59.55000	0.00275
59.56000	0.00273
59.57000	0.00272
59.58000	0.00271
59.59000	0.00269
59.60000	0.00268
59.61000	0.00266
59.62000	0.00265
59.63000	0.00264
59.64000	0.00262
59.65000	0.00261
59.66000	0.00260
59.67000	0.00258
59.68000	0.00257
59.69000	0.00256
59.70000	0.00254
59.71000	0.00253
59.72000	0.00252
59.73000	0.00250
59.74000	0.00249
59.75000	0.00248
59.76000	0.00247
59.77000	0.00246
59.78000	0.00244
59.79000	0.00243
59.80000	0.00242
59.81000	0.00241
59.82000	0.00240
59.83000	0.00238
59.84000	0.00237
59.85000	0.00236
59.86000	0.00235
59.87000	0.00234
59.88000	0.00233
59.89000	0.00232
59.90000	0.00231
59.91000	0.00230
59.92000	0.00229
59.93000	0.00227
59.94000	0.00226
59.95000	0.00225
59.96000	0.00224
59.97000	0.00223
59.98000	0.00222
59.99000	0.00221
60.00000	0.00220
60.01000	0.00219
60.02000	0.00218
60.03000	0.00217
60.04000	0.00216
60.05000	0.00215
60.06000	0.00214
60.07000	0.00214
60.08000	0.00213
60.09000	0.00212
60.10000	0.00211
60.11000	0.00210
60.12000	0.00209
60.13000	0.00208
60.14000	0.00207
60.15000	0.00206
60.16000	0.00205
60.17000	0.00205
60.18000	0.00204
60.19000	0.00203
60.20000	0.00202
60.21000	0.00201
60.22000	0.00200
60.23000	0.00200
60.24000	0.00199
60.25000	0.00198
60.26000	0.00197
60.27000	0.00196
60.28000	0.00195
60.29000	0.00195
60.30000	0.00194
60.31000	0.00193
60.32000	0.00192
60.33000	0.00192
60.34000	0.00191
60.35000	0.00190
60.36000	0.00189
60.37000	0.00189
60.38000	0.00188
60.39000	0.00187
60.40000	0.00186
60.41000	0.00186
60.42000	0.00185
60.43000	0.00184
60.44000	0.00184
60.45000	0.00183
60.46000	0.00182
60.47000	0.00182
60.48000	0.00181
60.49000	0.00180
60.50000	0.00180
60.51000	0.00179
60.52000	0.00178
60.53000	0.00178
60.54000	0.00177
60.55000	0.00176
60.56000	0.00176
60.57000	0.00175
60.58000	0.00174
60.59000	0.00174
60.60000	0.00173
60.61000	0.00172
60.62000	0.00172
60.63000	0.00171
60.64000	0.00171
60.65000	0.00170
60.66000	0.00169
60.67000	0.00169
60.68000	0.00168
60.69000	0.00168
60.70000	0.00167
60.71000	0.00167
60.72000	0.00166
60.73000	0.00165
60.74000	0.00165
60.75000	0.00164
60.76000	0.00164
60.77000	0.00163
60.78000	0.00163
60.79000	0.00162
60.80000	0.00162
60.81000	0.00161
60.82000	0.00161
60.83000	0.00160
60.84000	0.00160
60.85000	0.00159
60.86000	0.00159
60.87000	0.00158
60.88000	0.00158
60.89000	0.00157
60.90000	0.00157
60.91000	0.00156
60.92000	0.00156
60.93000	0.00155
60.94000	0.00155
60.95000	0.00154
60.96000	0.00154
60.97000	0.00153
60.98000	0.00153
60.99000	0.00152
61.00000	0.00152
61.01000	0.00151
61.02000	0.00151
61.03000	0.00150
61.04000	0.00150
61.05000	0.00150
61.06000	0.00149
61.07000	0.00149
61.08000	0.00148
61.09000	0.00148
61.10000	0.00147
61.11000	0.00147
61.12000	0.00147
61.13000	0.00146
61.14000	0.00146
61.15000	0.00145
61.16000	0.00145
61.17000	0.00145
61.18000	0.00144
61.19000	0.00144
61.20000	0.00143
61.21000	0.00143
61.22000	0.00143
61.23000	0.00142
61.24000	0.00142
61.25000	0.00141
61.26000	0.00141
61.27000	0.00141
61.28000	0.00140
61.29000	0.00140
61.30000	0.00140
61.31000	0.00139
61.32000	0.00139
61.33000	0.00138
61.34000	0.00138
61.35000	0.00138
61.36000	0.00137
61.37000	0.00137
61.38000	0.00137
61.39000	0.00136
61.40000	0.00136
61.41000	0.00136
61.42000	0.00135
61.43000	0.00135
61.44000	0.00135
61.45000	0.00138
61.46000	0.00138
61.47000	0.00138
61.48000	0.00137
61.49000	0.00137
61.50000	0.00137
61.51000	0.00137
61.52000	0.00136
61.53000	0.00136
61.54000	0.00136
61.55000	0.00135
61.56000	0.00135
61.57000	0.00135
61.58000	0.00134
61.59000	0.00134
61.60000	0.00134
61.61000	0.00134
61.62000	0.00133
61.63000	0.00133
61.64000	0.00133
61.65000	0.00132
61.66000	0.00132
61.67000	0.00132
61.68000	0.00132
61.69000	0.00131
61.70000	0.00131
61.71000	0.00131
61.72000	0.00131
61.73000	0.00130
61.74000	0.00130
61.75000	0.00130
61.76000	0.00130
61.77000	0.00129
61.78000	0.00129
61.79000	0.00129
61.80000	0.00129
61.81000	0.00128
61.82000	0.00128
61.83000	0.00128
61.84000	0.00128
61.85000	0.00127
61.86000	0.00127
61.87000	0.00127
61.88000	0.00127
61.89000	0.00126
61.90000	0.00126
61.91000	0.00126
61.92000	0.00126
61.93000	0.00125
61.94000	0.00125
61.95000	0.00125
61.96000	0.00125
61.97000	0.00125
61.98000	0.00124
61.99000	0.00124
62.00000	0.00124
62.01000	0.00124
62.02000	0.00124
62.03000	0.00123
62.04000	0.00123
62.05000	0.00123
62.06000	0.00123
62.07000	0.00123
62.08000	0.00122
62.09000	0.00122
62.10000	0.00122
62.11000	0.00122
62.12000	0.00122
62.13000	0.00121
62.14000	0.00121
62.15000	0.00121
62.16000	0.00121
62.17000	0.00121
62.18000	0.00120
62.19000	0.00120
62.20000	0.00120
62.21000	0.00120
62.22000	0.00120
62.23000	0.00120
62.24000	0.00119
62.25000	0.00119
62.26000	0.00119
62.27000	0.00119
62.28000	0.00112
62.29000	0.00112
62.30000	0.00112
62.31000	0.00111
62.32000	0.00111
62.33000	0.00111
62.34000	0.00111
62.35000	0.00111
62.36000	0.00111
62.37000	0.00111
62.38000	0.00110
62.39000	0.00110
62.40000	0.00110
62.41000	0.00110
62.42000	0.00110
62.43000	0.00110
62.44000	0.00110
62.45000	0.00110
62.46000	0.00109
62.47000	0.00109
62.48000	0.00109
62.49000	0.00109
62.50000	0.00109
62.51000	0.00109
62.52000	0.00109
62.53000	0.00109
62.54000	0.00108
62.55000	0.00108
62.56000	0.00108
62.57000	0.00108
62.58000	0.00108
62.59000	0.00108
62.60000	0.00108
62.61000	0.00108
62.62000	0.00108
62.63000	0.00108
62.64000	0.00107
62.65000	0.00107
62.66000	0.00107
62.67000	0.00107
62.68000	0.00107
62.69000	0.00107
62.70000	0.00107
62.71000	0.00107
62.72000	0.00107
62.73000	0.00107
62.74000	0.00107
62.75000	0.00106
62.76000	0.00106
62.77000	0.00106
62.78000	0.00106
62.79000	0.00106
62.80000	0.00106
62.81000	0.00106
62.82000	0.00106
62.83000	0.00106
62.84000	0.00106
62.85000	0.00106
62.86000	0.00106
62.87000	0.00106
62.88000	0.00105
62.89000	0.00105
62.90000	0.00105
62.91000	0.00105
62.92000	0.00105
62.93000	0.00105
62.94000	0.00105
62.95000	0.00105
62.96000	0.00105
62.97000	0.00105
62.98000	0.00105
62.99000	0.00105
63.00000	0.00105
63.01000	0.00105
63.02000	0.00105
63.03000	0.00105
63.04000	0.00105
63.05000	0.00104
63.06000	0.00104
63.07000	0.00104
63.08000	0.00104
63.09000	0.00104
63.10000	0.00104
63.11000	0.00104
63.12000	0.00104
63.13000	0.00104
63.14000	0.00104
63.15000	0.00104
63.16000	0.00104
63.17000	0.00104
63.18000	0.00104
63.19000	0.00104
63.20000	0.00104
63.21000	0.00104
63.22000	0.00104
63.23000	0.00104
63.24000	0.00104
63.25000	0.00104
63.26000	0.00104
63.27000	0.00104
63.28000	0.00104
63.29000	0.00104
63.30000	0.00104
63.31000	0.00104
63.32000	0.00104
63.33000	0.00104
63.34000	0.00104
63.35000	0.00104
63.36000	0.00104
63.37000	0.00104
63.38000	0.00104
63.39000	0.00104
63.40000	0.00104
63.41000	0.00104
63.42000	0.00104
63.43000	0.00104
63.44000	0.00104
63.45000	0.00104
63.46000	0.00104
63.47000	0.00104
63.48000	0.00104
63.49000	0.00104
63.50000	0.00104
63.51000	0.00104
63.52000	0.00104
63.53000	0.00104
63.54000	0.00104
63.55000	0.00104
63.56000	0.00104
63.57000	0.00104
63.58000	0.00104
63.59000	0.00104
63.60000	0.00104
63.61000	0.00104
63.62000	0.00104
63.63000	0.00104
63.64000	0.00104
63.65000	0.00104
63.66000	0.00104
63.67000	0.00104
63.68000	0.00104
63.69000	0.00104
63.70000	0.00104
63.71000	0.00104
63.72000	0.00104
63.73000	0.00104
63.74000	0.00104
63.75000	0.00104
63.76000	0.00104
63.77000	0.00104
63.78000	0.00105
63.79000	0.00105
63.80000	0.00105
63.81000	0.00105
63.82000	0.00105
63.83000	0.00105
63.84000	0.00105
63.85000	0.00105
63.86000	0.00105
63.87000	0.00105
63.88000	0.00105
63.89000	0.00105
63.90000	0.00105
63.91000	0.00105
63.92000	0.00105
63.93000	0.00105
63.94000	0.00105
63.95000	0.00105
63.96000	0.00106
63.97000	0.00106
63.98000	0.00106
63.99000	0.00106
64.00000	0.00106
64.01000	0.00106
64.02000	0.00106
64.03000	0.00106
64.04000	0.00106
64.05000	0.00106
64.06000	0.00106
64.07000	0.00106
64.08000	0.00107
64.09000	0.00107
64.10000	0.00107
64.11000	0.00107
64.12000	0.00107
64.13000	0.00107
64.14000	0.00107
64.15000	0.00107
64.16000	0.00107
64.17000	0.00107
64.18000	0.00107
64.19000	0.00108
64.20000	0.00108
64.21000	0.00108
64.22000	0.00108
64.23000	0.00108
64.24000	0.00108
64.25000	0.00108
64.26000	0.00108
64.27000	0.00108
64.28000	0.00109
64.29000	0.00109
64.30000	0.00109
64.31000	0.00109
64.32000	0.00109
64.33000	0.00109
64.34000	0.00109
64.35000	0.00109
64.36000	0.00110
64.37000	0.00110
64.38000	0.00110
64.39000	0.00110
64.40000	0.00110
64.41000	0.00110
64.42000	0.00110
64.43000	0.00110
64.44000	0.00111
64.45000	0.00111
64.46000	0.00111
64.47000	0.00111
64.48000	0.00111
64.49000	0.00111
64.50000	0.00112
64.51000	0.00112
64.52000	0.00112
64.53000	0.00112
64.54000	0.00112
64.55000	0.00112
64.56000	0.00112
64.57000	0.00113
64.58000	0.00113
64.59000	0.00113
64.60000	0.00113
64.61000	0.00113
64.62000	0.00114
64.63000	0.00114
64.64000	0.00114
64.65000	0.00114
64.66000	0.00114
64.67000	0.00114
64.68000	0.00115
64.69000	0.00115
64.70000	0.00115
64.71000	0.00115
64.72000	0.00115
64.73000	0.00116
64.74000	0.00116
64.75000	0.00116
64.76000	0.00116
64.77000	0.00116
64.78000	0.00117
64.79000	0.00117
64.80000	0.00117
64.81000	0.00117
64.82000	0.00117
64.83000	0.00118
64.84000	0.00118
64.85000	0.00118
64.86000	0.00118
64.87000	0.00119
64.88000	0.00119
64.89000	0.00119
64.90000	0.00119
64.91000	0.00119
64.92000	0.00120
64.93000	0.00120
64.94000	0.00120
64.95000	0.00120
64.96000	0.00121
64.97000	0.00121
64.98000	0.00121
64.99000	0.00121
65.00000	0.00122
65.01000	0.00122
65.02000	0.00122
65.03000	0.00122
65.04000	0.00123
65.05000	0.00123
65.06000	0.00123
65.07000	0.00124
65.08000	0.00124
65.09000	0.00124
65.10000	0.00124
65.11000	0.00125
65.12000	0.00125
65.13000	0.00125
65.14000	0.00126
65.15000	0.00126
65.16000	0.00126
65.17000	0.00126
65.18000	0.00127
65.19000	0.00127
65.20000	0.00127
65.21000	0.00128
65.22000	0.00128
65.23000	0.00128
65.24000	0.00129
65.25000	0.00129
65.26000	0.00129
65.27000	0.00130
65.28000	0.00130
65.29000	0.00130
65.30000	0.00131
65.31000	0.00131
65.32000	0.00131
65.33000	0.00132
65.34000	0.00132
65.35000	0.00132
65.36000	0.00133
65.37000	0.00133
65.38000	0.00133
65.39000	0.00134
65.40000	0.00134
65.41000	0.00135
65.42000	0.00135
65.43000	0.00135
65.44000	0.00136
65.45000	0.00136
65.46000	0.00136
65.47000	0.00137
65.48000	0.00137
65.49000	0.00138
65.50000	0.00141
65.51000	0.00142
65.52000	0.00142
65.53000	0.00143
65.54000	0.00143
65.55000	0.00144
65.56000	0.00144
65.57000	0.00144
65.58000	0.00145
65.59000	0.00145
65.60000	0.00146
65.61000	0.00146
65.62000	0.00147
65.63000	0.00147
65.64000	0.00148
65.65000	0.00148
65.66000	0.00149
65.67000	0.00149
65.68000	0.00149
65.69000	0.00150
65.70000	0.00150
65.71000	0.00151
65.72000	0.00151
65.73000	0.00152
65.74000	0.00152
65.75000	0.00153
65.76000	0.00154
65.77000	0.00154
65.78000	0.00155
65.79000	0.00155
65.80000	0.00156
65.81000	0.00156
65.82000	0.00157
65.83000	0.00157
65.84000	0.00158
65.85000	0.00158
65.86000	0.00159
65.87000	0.00160
65.88000	0.00160
65.89000	0.00161
65.90000	0.00161
65.91000	0.00162
65.92000	0.00163
65.93000	0.00163
65.94000	0.00164
65.95000	0.00164
65.96000	0.00165
65.97000	0.00166
65.98000	0.00166
65.99000	0.00167
66.00000	0.00168
66.01000	0.00168
66.02000	0.00169
66.03000	0.00170
66.04000	0.00170
66.05000	0.00171
66.06000	0.00172
66.07000	0.00173
66.08000	0.00173
66.09000	0.00174
66.10000	0.00175
66.11000	0.00175
66.12000	0.00176
66.13000	0.00177
66.14000	0.00178
66.15000	0.00178
66.16000	0.00179
66.17000	0.00180
66.18000	0.00181
66.19000	0.00182
66.20000	0.00182
66.21000	0.00183
66.22000	0.00184
66.23000	0.00185
66.24000	0.00186
66.25000	0.00187
66.26000	0.00187
66.27000	0.00188
66.28000	0.00189
66.29000	0.00190
66.30000	0.00191
66.31000	0.00192
66.32000	0.00193
66.33000	0.00194
66.34000	0.00195
66.35000	0.00196
66.36000	0.00196
66.37000	0.00197
66.38000	0.00198
66.39000	0.00199
66.40000	0.00200
66.41000	0.00201
66.42000	0.00202
66.43000	0.00203
66.44000	0.00204
66.45000	0.00206
66.46000	0.00207
66.47000	0.00208
66.48000	0.00209
66.49000	0.00210
66.50000	0.00211
66.51000	0.00212
66.52000	0.00213
66.53000	0.00214
66.54000	0.00216
66.55000	0.00217
66.56000	0.00218
66.57000	0.00219
66.58000	0.00220
66.59000	0.00222
66.60000	0.00223
66.61000	0.00224
66.62000	0.00225
66.63000	0.00227
66.64000	0.00228
66.65000	0.00229
66.66000	0.00231
66.67000	0.00232
66.68000	0.00233
66.69000	0.00235
66.70000	0.00236
66.71000	0.00238
66.72000	0.00239
66.73000	0.00240
66.74000	0.00242
66.75000	0.00243
66.76000	0.00245
66.77000	0.00246
66.78000	0.00248
66.79000	0.00250
66.80000	0.00251
66.81000	0.00253
66.82000	0.00254
66.83000	0.00256
66.84000	0.00258
66.85000	0.00259
66.86000	0.00261
66.87000	0.00263
66.88000	0.00265
66.89000	0.00266
66.90000	0.00268
66.91000	0.00270
66.92000	0.00272
66.93000	0.00274
66.94000	0.00276
66.95000	0.00278
66.96000	0.00279
66.97000	0.00281
66.98000	0.00283
66.99000	0.00285
67.00000	0.00288
67.01000	0.00290
67.02000	0.00292
67.03000	0.00294
67.04000	0.00296
67.05000	0.00298
67.06000	0.00300
67.07000	0.00303
67.08000	0.00305
67.09000	0.00307
67.10000	0.00310
67.11000	0.00312
67.12000	0.00315
67.13000	0.00317
67.14000	0.00314
67.15000	0.00316
67.16000	0.00319
67.17000	0.00321
67.18000	0.00324
67.19000	0.00327
67.20000	0.00330
67.21000	0.00332
67.22000	0.00335
67.23000	0.00338
67.24000	0.00341
67.25000	0.00344
67.26000	0.00347
67.27000	0.00350
67.28000	0.00353
67.29000	0.00356
67.30000	0.00360
67.31000	0.00363
67.32000	0.00366
67.33000	0.00369
67.34000	0.00373
67.35000	0.00376
67.36000	0.00380
67.37000	0.00383
67.38000	0.00387
67.39000	0.00391
67.40000	0.00395
67.41000	0.00398
67.42000	0.00402
67.43000	0.00406
67.44000	0.00410
67.45000	0.00414
67.46000	0.00419
67.47000	0.00423
67.48000	0.00427
67.49000	0.00431
67.50000	0.00436
67.51000	0.00440
67.52000	0.00445
67.53000	0.00450
67.54000	0.00455
67.55000	0.00459
67.56000	0.00464
67.57000	0.00469
67.58000	0.00475
67.59000	0.00480
67.60000	0.00485
67.61000	0.00491
67.62000	0.00496
67.63000	0.00502
67.64000	0.00508
67.65000	0.00514
67.66000	0.00520
67.67000	0.00526
67.68000	0.00532
67.69000	0.00538
67.70000	0.00545
67.71000	0.00551
67.72000	0.00558
67.73000	0.00565
67.74000	0.00572
67.75000	0.00579
67.76000	0.00587
67.77000	0.00594
67.78000	0.00602
67.79000	0.00610
67.80000	0.00618
67.81000	0.00626
67.82000	0.00634
67.83000	0.00643
67.84000	0.00651
67.85000	0.00660
67.86000	0.00669
67.87000	0.00679
67.88000	0.00688
67.89000	0.00698
67.90000	0.00708
67.91000	0.00718
67.92000	0.00729
67.93000	0.00739
67.94000	0.00750
67.95000	0.00762
67.96000	0.00773
67.97000	0.00785
67.98000	0.00797
67.99000	0.00809
68.00000	0.00822
68.01000	0.00835
68.02000	0.00849
68.03000	0.00862
68.04000	0.00876
68.05000	0.00891
68.06000	0.00906
68.07000	0.00921
68.08000	0.00937
68.09000	0.00953
68.10000	0.00969
68.11000	0.00986
68.12000	0.01004
68.13000	0.01022
68.14000	0.01040
68.15000	0.01059
68.16000	0.01079
68.17000	0.01099
68.18000	0.01120
68.19000	0.01142
68.20000	0.01164
68.21000	0.01187
68.22000	0.01210
68.23000	0.01234
68.24000	0.01260
68.25000	0.01285
68.26000	0.01312
68.27000	0.01340
68.28000	0.01368
68.29000	0.01398
68.30000	0.01429
68.31000	0.01460
68.32000	0.01493
68.33000	0.01527
68.34000	0.01562
68.35000	0.01599
68.36000	0.01636
68.37000	0.01676
68.38000	0.01716
68.39000	0.01759
68.40000	0.01803
68.41000	0.01848
68.42000	0.01896
68.43000	0.01946
68.44000	0.01997
68.45000	0.02051
68.46000	0.02107
68.47000	0.02165
68.48000	0.02226
68.49000	0.02290
68.50000	0.02357
68.51000	0.02427
68.52000	0.02500
68.53000	0.02576
68.54000	0.02656
68.55000	0.02741
68.56000	0.02829
68.57000	0.02922
68.58000	0.03019
68.59000	0.03122
68.60000	0.03231
68.61000	0.03345
68.62000	0.03466
68.63000	0.03593
68.64000	0.03728
68.65000	0.03872
68.66000	0.04023
68.67000	0.04184
68.68000	0.04356
68.69000	0.04538
68.70000	0.04733
68.71000	0.04941
68.72000	0.05163
68.73000	0.05401
68.74000	0.05656
68.75000	0.05931
68.76000	0.06226
68.77000	0.06545
68.78000	0.06890
68.79000	0.07264
68.80000	0.07669
68.81000	0.08111
68.82000	0.08593
68.83000	0.09121
68.84000	0.09700
68.85000	0.10338
68.86000	0.11042
68.87000	0.11823
68.88000	0.12693
68.89000	0.13664
68.90000	0.14754
68.91000	0.15982
68.92000	0.17375
68.93000	0.18961
68.94000	0.20780
68.95000	0.22878
68.96000	0.25317
68.97000	0.28175
68.98000	0.31558
68.99000	0.35616
69.00000	0.40565
69.01000	0.46739
69.02000	0.54655
69.03000	0.65117
69.04000	0.79313
69.05000	0.98894
69.06000	1.25940
69.07000	1.62768
69.08000	2.11486
69.09000	2.73163
69.10000	3.46198
69.11000	4.23226
69.12000	4.87527
69.13000	5.15918
69.14000	4.95264
69.15000	4.36033
69.16000	3.61352
69.17000	2.89291
69.18000	2.28336
69.19000	1.80724
69.20000	1.45766
69.21000	1.21670
69.22000	1.06494
69.23000	0.98674
69.24000	0.97288
69.25000	1.02094
69.26000	1.13379
69.27000	1.31655
69.28000	1.57179
69.29000	1.89149
69.30000	2.24233
69.31000	2.54714
69.32000	2.69201
69.33000	2.59969
69.34000	2.30614
69.35000	1.92194
69.36000	1.54158
69.37000	1.21211
69.38000	0.94709
69.39000	0.74366
69.40000	0.59224
69.41000	0.48134
69.42000	0.40020
69.43000	0.33998
69.44000	0.29416
69.45000	0.25824
69.46000	0.22929
69.47000	0.20539
69.48000	0.18533
69.49000	0.16824
69.50000	0.15355
69.51000	0.14080
69.52000	0.12965
69.53000	0.11985
69.54000	0.11118
69.55000	0.10346
69.56000	0.09656
69.57000	0.09036
69.58000	0.08478
69.59000	0.07971
69.60000	0.07512
69.61000	0.07092
69.62000	0.06709
69.63000	0.06357
69.64000	0.06034
69.65000	0.05735
69.66000	0.05460
69.67000	0.05204
69.68000	0.04967
69.69000	0.04747
69.70000	0.04541
69.71000	0.04349
69.72000	0.04170
69.73000	0.04001
69.74000	0.03844
69.75000	0.03696
69.76000	0.03556
69.77000	0.03425
69.78000	0.03301
69.79000	0.03184
69.80000	0.03073
69.81000	0.02968
69.82000	0.02869
69.83000	0.02775
69.84000	0.02686
69.85000	0.02601
69.86000	0.02520
69.87000	0.02443
69.88000	0.02370
69.89000	0.02300
69.90000	0.02233
69.91000	0.02169
69.92000	0.02108
69.93000	0.02050
69.94000	0.01994
69.95000	0.01941
69.96000	0.01890
69.97000	0.01841
69.98000	0.01794
69.99000	0.01748
70.00000	0.01705
70.01000	0.01663
70.02000	0.01623
70.03000	0.01585
70.04000	0.01547
70.05000	0.01512
70.06000	0.01477
70.07000	0.01444
70.08000	0.01412
70.09000	0.01381
70.10000	0.01351
70.11000	0.01322
70.12000	0.01294
70.13000	0.01267
70.14000	0.01241
70.15000	0.01216
70.16000	0.01192
70.17000	0.01168
70.18000	0.01145
70.19000	0.01123
70.20000	0.01102
70.21000	0.01081
70.22000	0.01061
70.23000	0.01041
70.24000	0.01022
70.25000	0.01004
70.26000	0.00986
70.27000	0.00969
70.28000	0.00952
70.29000	0.00936
70.30000	0.00920
70.31000	0.00904
70.32000	0.00889
70.33000	0.00875
70.34000	0.00860
70.35000	0.00847
70.36000	0.00833
70.37000	0.00820
70.38000	0.00807
70.39000	0.00795
70.40000	0.00783
70.41000	0.00771
70.42000	0.00760
70.43000	0.00748
70.44000	0.00738
70.45000	0.00727
70.46000	0.00717
70.47000	0.00706
70.48000	0.00697
70.49000	0.00687
70.50000	0.00678
70.51000	0.00668
70.52000	0.00659
70.53000	0.00651
70.54000	0.00642
70.55000	0.00634
70.56000	0.00626
70.57000	0.00618
70.58000	0.00610
70.59000	0.00602
70.60000	0.00595
70.61000	0.00588
70.62000	0.00580
70.63000	0.00573
70.64000	0.00567
70.65000	0.00560
70.66000	0.00554
70.67000	0.00541
70.68000	0.00535
70.69000	0.00529
70.70000	0.00523
70.71000	0.00517
70.72000	0.00512
70.73000	0.00506
70.74000	0.00500
70.75000	0.00495
70.76000	0.00490
70.77000	0.00485
70.78000	0.00480
70.79000	0.00475
70.80000	0.00470
70.81000	0.00465
70.82000	0.00460
70.83000	0.00456
70.84000	0.00451
70.85000	0.00447
70.86000	0.00443
70.87000	0.00439
70.88000	0.00434
70.89000	0.00430
70.90000	0.00426
70.91000	0.00423
70.92000	0.00419
70.93000	0.00415
70.94000	0.00411
70.95000	0.00408
70.96000	0.00404
70.97000	0.00401
70.98000	0.00397
70.99000	0.00394
71.00000	0.00391
71.01000	0.00387
71.02000	0.00384
71.03000	0.00381
71.04000	0.00378
71.05000	0.00375
71.06000	0.00372
71.07000	0.00369
71.08000	0.00366
71.09000	0.00364
71.10000	0.00361
71.11000	0.00358
71.12000	0.00356
71.13000	0.00353
71.14000	0.00350
71.15000	0.00348
71.16000	0.00345
71.17000	0.00343
71.18000	0.00341
71.19000	0.00338
71.20000	0.00336
71.21000	0.00334
71.22000	0.00332
71.23000	0.00329
71.24000	0.00327
71.25000	0.00325
71.26000	0.00323
71.27000	0.00321
71.28000	0.00319
71.29000	0.00317
71.30000	0.00315
71.31000	0.00313
71.32000	0.00312
71.33000	0.00310
71.34000	0.00308
71.35000	0.00306
71.36000	0.00305
71.37000	0.00303
71.38000	0.00301
71.39000	0.00300
71.40000	0.00298
71.41000	0.00296
71.42000	0.00295
71.43000	0.00293
71.44000	0.00292
71.45000	0.00290
71.46000	0.00289
71.47000	0.00287
71.48000	0.00286
71.49000	0.00285
71.50000	0.00283
71.51000	0.00282
71.52000	0.00281
71.53000	0.00279
71.54000	0.00278
71.55000	0.00277
71.56000	0.00276
71.57000	0.00275
71.58000	0.00273
71.59000	0.00272
71.60000	0.00271
71.61000	0.00270
71.62000	0.00269
71.63000	0.00268
71.64000	0.00267
71.65000	0.00266
71.66000	0.00265
71.67000	0.00264
71.68000	0.00263
71.69000	0.00262
71.70000	0.00261
71.71000	0.00260
71.72000	0.00259
71.73000	0.00258
71.74000	0.00258
71.75000	0.00257
71.76000	0.00256
71.77000	0.00255
71.78000	0.00254
71.79000	0.00253
71.80000	0.00253
71.81000	0.00252
71.82000	0.00251
71.83000	0.00251
71.84000	0.00250
71.85000	0.00249
71.86000	0.00249
71.87000	0.00248
71.88000	0.00247
71.89000	0.00247
71.90000	0.00246
71.91000	0.00245
71.92000	0.00245
71.93000	0.00244
71.94000	0.00244
71.95000	0.00243
71.96000	0.00243
71.97000	0.00242
71.98000	0.00242
71.99000	0.00241
72.00000	0.00241
72.01000	0.00240
72.02000	0.00240
72.03000	0.00239
72.04000	0.00239
72.05000	0.00238
72.06000	0.00238
72.07000	0.00238
72.08000	0.00237
72.09000	0.00237
72.10000	0.00237
72.11000	0.00236
72.12000	0.00236
72.13000	0.00236
72.14000	0.00235
72.15000	0.00235
72.16000	0.00235
72.17000	0.00235
72.18000	0.00234
72.19000	0.00234
72.20000	0.00234
72.21000	0.00234
72.22000	0.00233
72.23000	0.00233
72.24000	0.00233
72.25000	0.00233
72.26000	0.00233
72.27000	0.00232
72.28000	0.00232
72.29000	0.00232
72.30000	0.00232
72.31000	0.00232
72.32000	0.00232
72.33000	0.00232
72.34000	0.00232
72.35000	0.00232
72.36000	0.00231
72.37000	0.00231
72.38000	0.00231
72.39000	0.00231
72.40000	0.00231
72.41000	0.00231
72.42000	0.00231
72.43000	0.00231
72.44000	0.00231
72.45000	0.00231
72.46000	0.00231
72.47000	0.00231
72.48000	0.00231
72.49000	0.00231
72.50000	0.00232
72.51000	0.00232
72.52000	0.00232
72.53000	0.00232
72.54000	0.00232
72.55000	0.00232
72.56000	0.00232
72.57000	0.00232
72.58000	0.00232
72.59000	0.00233
72.60000	0.00233
72.61000	0.00233
72.62000	0.00233
72.63000	0.00233
72.64000	0.00234
72.65000	0.00234
72.66000	0.00234
72.67000	0.00234
72.68000	0.00234
72.69000	0.00235
72.70000	0.00235
72.71000	0.00235
72.72000	0.00236
72.73000	0.00236
72.74000	0.00236
72.75000	0.00236
72.76000	0.00237
72.77000	0.00237
72.78000	0.00237
72.79000	0.00238
72.80000	0.00238
72.81000	0.00239
72.82000	0.00239
72.83000	0.00239
72.84000	0.00240
72.85000	0.00240
72.86000	0.00241
72.87000	0.00241
72.88000	0.00241
72.89000	0.00242
72.90000	0.00242
72.91000	0.00243
72.92000	0.00246
72.93000	0.00247
72.94000	0.00247
72.95000	0.00248
72.96000	0.00248
72.97000	0.00249
72.98000	0.00249
72.99000	0.00250
73.00000	0.00251
73.01000	0.00251
73.02000	0.00252
73.03000	0.00252
73.04000	0.00253
73.05000	0.00254
73.06000	0.00254
73.07000	0.00255
73.08000	0.00255
73.09000	0.00256
73.10000	0.00257
73.11000	0.00258
73.12000	0.00258
73.13000	0.00259
73.14000	0.00260
73.15000	0.00260
73.16000	0.00261
73.17000	0.00262
73.18000	0.00263
73.19000	0.00263
73.20000	0.00264
73.21000	0.00265
73.22000	0.00266
73.23000	0.00267
73.24000	0.00268
73.25000	0.00268
73.26000	0.00269
73.27000	0.00270
73.28000	0.00271
73.29000	0.00272
73.30000	0.00273
73.31000	0.00274
73.32000	0.00275
73.33000	0.00276
73.34000	0.00277
73.35000	0.00278
73.36000	0.00279
73.37000	0.00280
73.38000	0.00281
73.39000	0.00282
73.40000	0.00283
73.41000	0.00284
73.42000	0.00285
73.43000	0.00286
73.44000	0.00287
73.45000	0.00289
73.46000	0.00290
73.47000	0.00291
73.48000	0.00292
73.49000	0.00293
73.50000	0.00295
73.51000	0.00296
73.52000	0.00297
73.53000	0.00298
73.54000	0.00300
73.55000	0.00301
73.56000	0.00302
73.57000	0.00304
73.58000	0.00305
73.59000	0.00306
73.60000	0.00308
73.61000	0.00309
73.62000	0.00311
73.63000	0.00312
73.64000	0.00314
73.65000	0.00315
73.66000	0.00317
73.67000	0.00318
73.68000	0.00320
73.69000	0.00321
73.70000	0.00323
73.71000	0.00324
73.72000	0.00326
73.73000	0.00328
73.74000	0.00329
73.75000	0.00331
73.76000	0.00333
73.77000	0.00335
73.78000	0.00336
73.79000	0.00338
73.80000	0.00340
73.81000	0.00342
73.82000	0.00344
73.83000	0.00345
73.84000	0.00347
73.85000	0.00349
73.86000	0.00351
73.87000	0.00353
73.88000	0.00355
73.89000	0.00357
73.90000	0.00359
73.91000	0.00362
73.92000	0.00364
73.93000	0.00366
73.94000	0.00368
73.95000	0.00370
73.96000	0.00372
73.97000	0.00375
73.98000	0.00377
73.99000	0.00379
74.00000	0.00382
74.01000	0.00384
74.02000	0.00387
74.03000	0.00389
74.04000	0.00392
74.05000	0.00394
74.06000	0.00397
74.07000	0.00399
74.08000	0.00402
74.09000	0.00405
74.10000	0.00407
74.11000	0.00410
74.12000	0.00413
74.13000	0.00416
74.14000	0.00418
74.15000	0.00421
74.16000	0.00424
74.17000	0.00427
74.18000	0.00430
74.19000	0.00433
74.20000	0.00437
74.21000	0.00440
74.22000	0.00443
74.23000	0.00446
74.24000	0.00449
74.25000	0.00453
74.26000	0.00456
74.27000	0.00460
74.28000	0.00463
74.29000	0.00467
74.30000	0.00470
74.31000	0.00474
74.32000	0.00478
74.33000	0.00481
74.34000	0.00485
74.35000	0.00489
74.36000	0.00493
74.37000	0.00497
74.38000	0.00501
74.39000	0.00505
74.40000	0.00509
74.41000	0.00514
74.42000	0.00518
74.43000	0.00522
74.44000	0.00527
74.45000	0.00531
74.46000	0.00536
74.47000	0.00541
74.48000	0.00545
74.49000	0.00550
74.50000	0.00555
74.51000	0.00560
74.52000	0.00565
74.53000	0.00570
74.54000	0.00575
74.55000	0.00581
74.56000	0.00586
74.57000	0.00591
74.58000	0.00597
74.59000	0.00603
74.60000	0.00608
74.61000	0.00614
74.62000	0.00620
74.63000	0.00626
74.64000	0.00632
74.65000	0.00639
74.66000	0.00645
74.67000	0.00651
74.68000	0.00658
74.69000	0.00665
74.70000	0.00671
74.71000	0.00678
74.72000	0.00685
74.73000	0.00693
74.74000	0.00700
74.75000	0.00707
74.76000	0.00715
74.77000	0.00723
74.78000	0.00730
74.79000	0.00738
74.80000	0.00747
74.81000	0.00755
74.82000	0.00763
74.83000	0.00772
74.84000	0.00781
74.85000	0.00790
74.86000	0.00799
74.87000	0.00808
74.88000	0.00818
74.89000	0.00827
74.90000	0.00837
74.91000	0.00847
74.92000	0.00858
74.93000	0.00868
74.94000	0.00879
74.95000	0.00890
74.96000	0.00901
74.97000	0.00912
74.98000	0.00924
74.99000	0.00936
75.00000	0.00948
75.01000	0.00960
75.02000	0.00973
75.03000	0.00985
75.04000	0.00999
75.05000	0.01012
75.06000	0.01026
75.07000	0.01040
75.08000	0.01054
75.09000	0.01069
75.10000	0.01084
75.11000	0.01099
75.12000	0.01115
75.13000	0.01131
75.14000	0.01148
75.15000	0.01164
75.16000	0.01182
75.17000	0.01199
75.18000	0.01217
75.19000	0.01236
75.20000	0.01255
75.21000	0.01274
75.22000	0.01294
75.23000	0.01315
75.24000	0.01336
75.25000	0.01357
75.26000	0.01379
75.27000	0.01402
75.28000	0.01425
75.29000	0.01449
75.30000	0.01474
75.31000	0.01499
75.32000	0.01525
75.33000	0.01551
75.34000	0.01579
75.35000	0.01607
75.36000	0.01636
75.37000	0.01665
75.38000	0.01696
75.39000	0.01727
75.40000	0.01760
75.41000	0.01793
75.42000	0.01827
75.43000	0.01863
75.44000	0.01899
75.45000	0.01937
75.46000	0.01976
75.47000	0.02016
75.48000	0.02057
75.49000	0.02099
75.50000	0.02146
75.51000	0.02191
75.52000	0.02238
75.53000	0.02287
75.54000	0.02337
75.55000	0.02389
75.56000	0.02443
75.57000	0.02499
75.58000	0.02556
75.59000	0.02616
75.60000	0.02678
75.61000	0.02743
75.62000	0.02810
75.63000	0.02879
75.64000	0.02951
75.65000	0.03026
75.66000	0.03104
75.67000	0.03185
75.68000	0.03270
75.69000	0.03358
75.70000	0.03449
75.71000	0.03545
75.72000	0.03645
75.73000	0.03749
75.74000	0.03858
75.75000	0.03972
75.76000	0.04091
75.77000	0.04216
75.78000	0.04347
75.79000	0.04484
75.80000	0.04628
75.81000	0.04779
75.82000	0.04938
75.83000	0.05105
75.84000	0.05281
75.85000	0.05466
75.86000	0.05662
75.87000	0.05869
75.88000	0.06088
75.89000	0.06319
75.90000	0.06565
75.91000	0.06825
75.92000	0.07102
75.93000	0.07396
75.94000	0.07710
75.95000	0.08044
75.96000	0.08401
75.97000	0.08783
75.98000	0.09193
75.99000	0.09632
76.00000	0.10105
76.01000	0.10614
76.02000	0.11164
76.03000	0.11759
76.04000	0.12404
76.05000	0.13105
76.06000	0.13868
76.07000	0.14702
76.08000	0.15615
76.09000	0.16618
76.10000	0.17724
76.11000	0.18945
76.12000	0.20301
76.13000	0.21810
76.14000	0.23498
76.15000	0.25393
76.16000	0.27531
76.17000	0.29956
76.18000	0.32721
76.19000	0.35893
76.20000	0.39561
76.21000	0.43838
76.22000	0.48881
76.23000	0.54913
76.24000	0.62263
76.25000	0.71414
76.26000	0.83081
76.27000	0.98281
76.28000	1.18399
76.29000	1.45195
76.30000	1.80720
76.31000	2.27106
76.32000	2.86177
76.33000	3.58779
76.34000	4.43560
76.35000	5.34792
76.36000	6.19504
76.37000	6.77249
76.38000	6.88506
76.39000	6.49211
76.40000	5.74429
76.41000	4.85906
76.42000	3.99945
76.43000	3.24872
76.44000	2.63516
76.45000	2.15817
76.46000	1.80404
76.47000	1.55465
76.48000	1.39260
76.49000	1.30431
76.50000	1.28161
76.51000	1.32190
76.52000	1.42717
76.53000	1.60212
76.54000	1.85130
76.55000	2.17488
76.56000	2.56166
76.57000	2.97720
76.58000	3.35015
76.59000	3.57602
76.60000	3.56581
76.61000	3.31467
76.62000	2.90587
76.63000	2.44427
76.64000	2.00354
76.65000	1.61933
76.66000	1.30236
76.67000	1.05039
76.68000	0.85522
76.69000	0.70647
76.70000	0.59375
76.71000	0.50790
76.72000	0.44157
76.73000	0.38923
76.74000	0.34695
76.75000	0.31204
76.76000	0.28268
76.77000	0.25760
76.78000	0.23594
76.79000	0.21706
76.80000	0.20049
76.81000	0.18584
76.82000	0.17282
76.83000	0.16119
76.84000	0.15076
76.85000	0.14136
76.86000	0.13286
76.87000	0.12514
76.88000	0.11810
76.89000	0.11167
76.90000	0.10578
76.91000	0.10036
76.92000	0.09537
76.93000	0.09076
76.94000	0.08649
76.95000	0.08253
76.96000	0.07884
76.97000	0.07541
76.98000	0.07220
76.99000	0.06921
77.00000	0.06640
77.01000	0.06377
77.02000	0.06129
77.03000	0.05896
77.04000	0.05677
77.05000	0.05471
77.06000	0.05275
77.07000	0.05091
77.08000	0.04916
77.09000	0.04750
77.10000	0.04593
77.11000	0.04444
77.12000	0.04302
77.13000	0.04167
77.14000	0.04039
77.15000	0.03912
77.16000	0.03795
77.17000	0.03683
77.18000	0.03577
77.19000	0.03475
77.20000	0.03378
77.21000	0.03285
77.22000	0.03195
77.23000	0.03110
77.24000	0.03028
77.25000	0.02949
77.26000	0.02873
77.27000	0.02800
77.28000	0.02730
77.29000	0.02663
77.30000	0.02599
77.31000	0.02536
77.32000	0.02476
77.33000	0.02418
77.34000	0.02362
77.35000	0.02309
77.36000	0.02257
77.37000	0.02206
77.38000	0.02158
77.39000	0.02111
77.40000	0.02066
77.41000	0.02022
77.42000	0.01980
77.43000	0.01939
77.44000	0.01899
77.45000	0.01860
77.46000	0.01823
77.47000	0.01787
77.48000	0.01752
77.49000	0.01718
77.50000	0.01685
77.51000	0.01653
77.52000	0.01622
77.53000	0.01592
77.54000	0.01563
77.55000	0.01534
77.56000	0.01506
77.57000	0.01480
77.58000	0.01453
77.59000	0.01428
77.60000	0.01403
77.61000	0.01379
77.62000	0.01356
77.63000	0.01333
77.64000	0.01311
77.65000	0.01289
77.66000	0.01268
77.67000	0.01247
77.68000	0.01227
77.69000	0.01208
77.70000	0.01189
77.71000	0.01170
77.72000	0.01152
77.73000	0.01134
77.74000	0.01117
77.75000	0.01100
77.76000	0.01083
77.77000	0.01067
77.78000	0.01052
77.79000	0.01036
77.80000	0.01021
77.81000	0.01007
77.82000	0.00992
77.83000	0.00978
77.84000	0.00965
77.85000	0.00951
77.86000	0.00938
77.87000	0.00925
77.88000	0.00913
77.89000	0.00900
77.90000	0.00888
77.91000	0.00877
77.92000	0.00865
77.93000	0.00854
77.94000	0.00843
77.95000	0.00832
77.96000	0.00821
77.97000	0.00811
77.98000	0.00801
77.99000	0.00791
78.00000	0.00781
78.01000	0.00772
78.02000	0.00762
78.03000	0.00753
78.04000	0.00744
78.05000	0.00735
78.06000	0.00726
78.07000	0.00718
78.08000	0.00710
78.09000	0.00701
78.10000	0.00693
78.11000	0.00685
78.12000	0.00678
78.13000	0.00670
78.14000	0.00663
78.15000	0.00655
78.16000	0.00648
78.17000	0.00641
78.18000	0.00634
78.19000	0.00627
78.20000	0.00621
78.21000	0.00614
78.22000	0.00607
78.23000	0.00601
78.24000	0.00595
78.25000	0.00589
78.26000	0.00583
78.27000	0.00577
78.28000	0.00571
78.29000	0.00565
78.30000	0.00560
78.31000	0.00554
78.32000	0.00549
78.33000	0.00543
78.34000	0.00538
78.35000	0.00533
78.36000	0.00528
78.37000	0.00523
78.38000	0.00518
78.39000	0.00513
78.40000	0.00508
78.41000	0.00503
78.42000	0.00499
78.43000	0.00494
78.44000	0.00490
78.45000	0.00485
78.46000	0.00481
78.47000	0.00477
78.48000	0.00472
78.49000	0.00468
78.50000	0.00464
78.51000	0.00460
78.52000	0.00456
78.53000	0.00452
78.54000	0.00448
78.55000	0.00445
78.56000	0.00441
78.57000	0.00437
78.58000	0.00433
78.59000	0.00430
78.60000	0.00426
78.61000	0.00423
78.62000	0.00419
78.63000	0.00416
78.64000	0.00413
78.65000	0.00409
78.66000	0.00406
78.67000	0.00403
78.68000	0.00400
78.69000	0.00397
78.70000	0.00394
78.71000	0.00391
78.72000	0.00388
78.73000	0.00385
78.74000	0.00382
78.75000	0.00379
78.76000	0.00376
78.77000	0.00373
78.78000	0.00371
78.79000	0.00368
78.80000	0.00365
78.81000	0.00363
78.82000	0.00360
78.83000	0.00358
78.84000	0.00355
78.85000	0.00353
78.86000	0.00350
78.87000	0.00348
78.88000	0.00345
78.89000	0.00343
78.90000	0.00341
78.91000	0.00338
78.92000	0.00336
78.93000	0.00334
78.94000	0.00332
78.95000	0.00329
78.96000	0.00327
78.97000	0.00325
78.98000	0.00323
78.99000	0.00321
79.00000	0.00319
79.01000	0.00317
79.02000	0.00315
79.03000	0.00313
79.04000	0.00311
79.05000	0.00309
79.06000	0.00307
79.07000	0.00305
79.08000	0.00303
79.09000	0.00301
79.10000	0.00300
79.11000	0.00298
79.12000	0.00296
79.13000	0.00294
79.14000	0.00293
79.15000	0.00291
79.16000	0.00289
79.17000	0.00288
79.18000	0.00286
79.19000	0.00284
79.20000	0.00283
79.21000	0.00281
79.22000	0.00279
79.23000	0.00278
79.24000	0.00276
79.25000	0.00275
79.26000	0.00273
79.27000	0.00272
79.28000	0.00270
79.29000	0.00269
79.30000	0.00268
79.31000	0.00266
79.32000	0.00265
79.33000	0.00263
79.34000	0.00262
79.35000	0.00261
79.36000	0.00259
79.37000	0.00258
79.38000	0.00257
79.39000	0.00255
79.40000	0.00254
79.41000	0.00253
79.42000	0.00252
79.43000	0.00250
79.44000	0.00249
79.45000	0.00248
79.46000	0.00247
79.47000	0.00246
79.48000	0.00244
79.49000	0.00243
79.50000	0.00242
79.51000	0.00241
79.52000	0.00240
79.53000	0.00239
79.54000	0.00238
79.55000	0.00237
79.56000	0.00236
79.57000	0.00235
79.58000	0.00234
79.59000	0.00232
79.60000	0.00231
79.61000	0.00230
79.62000	0.00229
79.63000	0.00228
79.64000	0.00228
79.65000	0.00227
79.66000	0.00226
79.67000	0.00225
79.68000	0.00224
79.69000	0.00223
79.70000	0.00222
79.71000	0.00221
79.72000	0.00220
79.73000	0.00219
79.74000	0.00218
79.75000	0.00217
79.76000	0.00217
79.77000	0.00216
79.78000	0.00215
79.79000	0.00214
79.80000	0.00213
79.81000	0.00213
79.82000	0.00212
79.83000	0.00211
79.84000	0.00210
79.85000	0.00209
79.86000	0.00204
79.87000	0.00203
79.88000	0.00202
79.89000	0.00202
79.90000	0.00201
79.91000	0.00200
79.92000	0.00200
79.93000	0.00199
79.94000	0.00198
79.95000	0.00198
79.96000	0.00197
79.97000	0.00196
79.98000	0.00196
79.99000	0.00195
80.00000	0.00194
80.01000	0.00194
80.02000	0.00193
80.03000	0.00192
80.04000	0.00192
80.05000	0.00191
80.06000	0.00190
80.07000	0.00190
80.08000	0.00189
80.09000	0.00189
80.10000	0.00188
80.11000	0.00188
80.12000	0.00187
80.13000	0.00186
80.14000	0.00186
80.15000	0.00185
80.16000	0.00185
80.17000	0.00184
80.18000	0.00184
80.19000	0.00183
80.20000	0.00183
80.21000	0.00182
80.22000	0.00182
80.23000	0.00181
80.24000	0.00181
80.25000	0.00180
80.26000	0.00180
80.27000	0.00179
80.28000	0.00179
80.29000	0.00178
80.30000	0.00178
80.31000	0.00177
80.32000	0.00177
80.33000	0.00176
80.34000	0.00176
80.35000	0.00176
80.36000	0.00175
80.37000	0.00175
80.38000	0.00174
80.39000	0.00174
80.40000	0.00173
80.41000	0.00173
80.42000	0.00173
80.43000	0.00172
80.44000	0.00172
80.45000	0.00171
80.46000	0.00171
80.47000	0.00171
80.48000	0.00170
80.49000	0.00170
80.50000	0.00170
80.51000	0.00169
80.52000	0.00169
80.53000	0.00169
80.54000	0.00168
80.55000	0.00168
80.56000	0.00168
80.57000	0.00167
80.58000	0.00167
80.59000	0.00167
80.60000	0.00166
80.61000	0.00166
80.62000	0.00166
80.63000	0.00165
80.64000	0.00165
80.65000	0.00165
80.66000	0.00164
80.67000	0.00164
80.68000	0.00164
80.69000	0.00164
80.70000	0.00163
80.71000	0.00163
80.72000	0.00163
80.73000	0.00162
80.74000	0.00162
80.75000	0.00162
80.76000	0.00162
80.77000	0.00161
80.78000	0.00161
80.79000	0.00161
80.80000	0.00161
80.81000	0.00160
80.82000	0.00160
80.83000	0.00160
80.84000	0.00160
80.85000	0.00159
80.86000	0.00159
80.87000	0.00159
80.88000	0.00159
80.89000	0.00159
80.90000	0.00158
80.91000	0.00158
80.92000	0.00158
80.93000	0.00161
80.94000	0.00161
80.95000	0.00160
80.96000	0.00160
80.97000	0.00160
80.98000	0.00160
80.99000	0.00160
81.00000	0.00160
81.01000	0.00159
81.02000	0.00159
81.03000	0.00159
81.04000	0.00159
81.05000	0.00159
81.06000	0.00159
81.07000	0.00158
81.08000	0.00158
81.09000	0.00158
81.10000	0.00158
81.11000	0.00158
81.12000	0.00158
81.13000	0.00158
81.14000	0.00157
81.15000	0.00157
81.16000	0.00157
81.17000	0.00157
81.18000	0.00157
81.19000	0.00157
81.20000	0.00157
81.21000	0.00157
81.22000	0.00157
81.23000	0.00156
81.24000	0.00156
81.25000	0.00156
81.26000	0.00156
81.27000	0.00156
81.28000	0.00156
81.29000	0.00156
81.30000	0.00156
81.31000	0.00156
81.32000	0.00156
81.33000	0.00156
81.34000	0.00156
81.35000	0.00155
81.36000	0.00155
81.37000	0.00155
81.38000	0.00155
81.39000	0.00155
81.40000	0.00155
81.41000	0.00155
81.42000	0.00155
81.43000	0.00155
81.44000	0.00155
81.45000	0.00155
81.46000	0.00155
81.47000	0.00155
81.48000	0.00155
81.49000	0.00155
81.50000	0.00155
81.51000	0.00155
81.52000	0.00155
81.53000	0.00155
81.54000	0.00155
81.55000	0.00155
81.56000	0.00155
81.57000	0.00155
81.58000	0.00155
81.59000	0.00155
81.60000	0.00155
81.61000	0.00155
81.62000	0.00155
81.63000	0.00155
81.64000	0.00155
81.65000	0.00155
81.66000	0.00155
81.67000	0.00155
81.68000	0.00155
81.69000	0.00155
81.70000	0.00155
81.71000	0.00155
81.72000	0.00155
81.73000	0.00155
81.74000	0.00155
81.75000	0.00155
81.76000	0.00155
81.77000	0.00155
81.78000	0.00155
81.79000	0.00155
81.80000	0.00155
81.81000	0.00155
81.82000	0.00155
81.83000	0.00155
81.84000	0.00155
81.85000	0.00155
81.86000	0.00156
81.87000	0.00156
81.88000	0.00156
81.89000	0.00156
81.90000	0.00156
81.91000	0.00156
81.92000	0.00156
81.93000	0.00156
81.94000	0.00156
81.95000	0.00156
81.96000	0.00156
81.97000	0.00156
81.98000	0.00156
81.99000	0.00157
82.00000	0.00157
82.01000	0.00157
82.02000	0.00157
82.03000	0.00157
82.04000	0.00157
82.05000	0.00157
82.06000	0.00157
82.07000	0.00157
82.08000	0.00158
82.09000	0.00158
82.10000	0.00158
82.11000	0.00158
82.12000	0.00158
82.13000	0.00158
82.14000	0.00158
82.15000	0.00159
82.16000	0.00159
82.17000	0.00159
82.18000	0.00159
82.19000	0.00159
82.20000	0.00159
82.21000	0.00159
82.22000	0.00160
82.23000	0.00160
82.24000	0.00160
82.25000	0.00160
82.26000	0.00160
82.27000	0.00160
82.28000	0.00161
82.29000	0.00161
82.30000	0.00161
82.31000	0.00161
82.32000	0.00161
82.33000	0.00161
82.34000	0.00162
82.35000	0.00162
82.36000	0.00162
82.37000	0.00162
82.38000	0.00162
82.39000	0.00163
82.40000	0.00163
82.41000	0.00163
82.42000	0.00163
82.43000	0.00163
82.44000	0.00164
82.45000	0.00164
82.46000	0.00164
82.47000	0.00164
82.48000	0.00165
82.49000	0.00165
82.50000	0.00165
82.51000	0.00165
82.52000	0.00165
82.53000	0.00166
82.54000	0.00166
82.55000	0.00166
82.56000	0.00166
82.57000	0.00167
82.58000	0.00167
82.59000	0.00167
82.60000	0.00167
82.61000	0.00168
82.62000	0.00168
82.63000	0.00168
82.64000	0.00168
82.65000	0.00169
82.66000	0.00169
82.67000	0.00169
82.68000	0.00170
82.69000	0.00170
82.70000	0.00170
82.71000	0.00170
82.72000	0.00171
82.73000	0.00171
82.74000	0.00171
82.75000	0.00172
82.76000	0.00172
82.77000	0.00172
82.78000	0.00173
82.79000	0.00173
82.80000	0.00173
82.81000	0.00173
82.82000	0.00174
82.83000	0.00174
82.84000	0.00174
82.85000	0.00175
82.86000	0.00175
82.87000	0.00175
82.88000	0.00176
82.89000	0.00176
82.90000	0.00177
82.91000	0.00177
82.92000	0.00177
82.93000	0.00178
82.94000	0.00178
82.95000	0.00178
82.96000	0.00179
82.97000	0.00179
82.98000	0.00179
82.99000	0.00180
83.00000	0.00180
83.01000	0.00181
83.02000	0.00181
83.03000	0.00181
83.04000	0.00182
83.05000	0.00182
83.06000	0.00183
83.07000	0.00183
83.08000	0.00183
83.09000	0.00184
83.10000	0.00184
83.11000	0.00185
83.12000	0.00187
83.13000	0.00187
83.14000	0.00187
83.15000	0.00188
83.16000	0.00188
83.17000	0.00189
83.18000	0.00189
83.19000	0.00190
83.20000	0.00190
83.21000	0.00191
83.22000	0.00191
83.23000	0.00192
83.24000	0.00192
83.25000	0.00192
83.26000	0.00193
83.27000	0.00193
83.28000	0.00194
83.29000	0.00194
83.30000	0.00195
83.31000	0.00195
83.32000	0.00196
83.33000	0.00196
83.34000	0.00197
83.35000	0.00197
83.36000	0.00198
83.37000	0.00198
83.38000	0.00199
83.39000	0.00200
83.40000	0.00200
83.41000	0.00201
83.42000	0.00201
83.43000	0.00202
83.44000	0.00202
83.45000	0.00203
83.46000	0.00203
83.47000	0.00204
83.48000	0.00204
83.49000	0.00205
83.50000	0.00206
83.51000	0.00206
83.52000	0.00207
83.53000	0.00207
83.54000	0.00208
83.55000	0.00209
83.56000	0.00209
83.57000	0.00210
83.58000	0.00213
83.59000	0.00214
83.60000	0.00215
83.61000	0.00215
83.62000	0.00216
83.63000	0.00217
83.64000	0.00217
83.65000	0.00218
83.66000	0.00219
83.67000	0.00219
83.68000	0.00220
83.69000	0.00221
83.70000	0.00221
83.71000	0.00222
83.72000	0.00223
83.73000	0.00223
83.74000	0.00224
83.75000	0.00225
83.76000	0.00226
83.77000	0.00226
83.78000	0.00227
83.79000	0.00228
83.80000	0.00228
83.81000	0.00229
83.82000	0.00230
83.83000	0.00231
83.84000	0.00232
83.85000	0.00232
83.86000	0.00233
83.87000	0.00234
83.88000	0.00235
83.89000	0.00235
83.90000	0.00236
83.91000	0.00237
83.92000	0.00238
83.93000	0.00239
83.94000	0.00240
83.95000	0.00240
83.96000	0.00241
83.97000	0.00242
83.98000	0.00243
83.99000	0.00244
84.00000	0.00247
84.01000	0.00248
84.02000	0.00249
84.03000	0.00250
84.04000	0.00251
84.05000	0.00252
84.06000	0.00252
84.07000	0.00253
84.08000	0.00254
84.09000	0.00255
84.10000	0.00256
84.11000	0.00257
84.12000	0.00258
84.13000	0.00259
84.14000	0.00260
84.15000	0.00261
84.16000	0.00262
84.17000	0.00263
84.18000	0.00264
84.19000	0.00265
84.20000	0.00266
84.21000	0.00267
84.22000	0.00268
84.23000	0.00269
84.24000	0.00270
84.25000	0.00271
84.26000	0.00273
84.27000	0.00274
84.28000	0.00275
84.29000	0.00276
84.30000	0.00277
84.31000	0.00278
84.32000	0.00279
84.33000	0.00280
84.34000	0.00281
84.35000	0.00283
84.36000	0.00284
84.37000	0.00285
84.38000	0.00286
84.39000	0.00287
84.40000	0.00289
84.41000	0.00290
84.42000	0.00291
84.43000	0.00292
84.44000	0.00294
84.45000	0.00295
84.46000	0.00296
84.47000	0.00297
84.48000	0.00299
84.49000	0.00300
84.50000	0.00301
84.51000	0.00303
84.52000	0.00304
84.53000	0.00305
84.54000	0.00307
84.55000	0.00308
84.56000	0.00310
84.57000	0.00311
84.58000	0.00312
84.59000	0.00314
84.60000	0.00315
84.61000	0.00317
84.62000	0.00318
84.63000	0.00320
84.64000	0.00321
84.65000	0.00323
84.66000	0.00324
84.67000	0.00326
84.68000	0.00327
84.69000	0.00329
84.70000	0.00331
84.71000	0.00332
84.72000	0.00334
84.73000	0.00335
84.74000	0.00337
84.75000	0.00339
84.76000	0.00340
84.77000	0.00342
84.78000	0.00344
84.79000	0.00345
84.80000	0.00347
84.81000	0.00349
84.82000	0.00351
84.83000	0.00352
84.84000	0.00354
84.85000	0.00356
84.86000	0.00358
84.87000	0.00360
84.88000	0.00362
84.89000	0.00364
84.90000	0.00365
84.91000	0.00367
84.92000	0.00369
84.93000	0.00371
84.94000	0.00373
84.95000	0.00375
84.96000	0.00377
84.97000	0.00379
84.98000	0.00381
84.99000	0.00383
85.00000	0.00386
85.01000	0.00388
85.02000	0.00390
85.03000	0.00392
85.04000	0.00394
85.05000	0.00396
85.06000	0.00399
85.07000	0.00401
85.08000	0.00403
85.09000	0.00405
85.10000	0.00408
85.11000	0.00410
85.12000	0.00412
85.13000	0.00415
85.14000	0.00417
85.15000	0.00420
85.16000	0.00422
85.17000	0.00425
85.18000	0.00427
85.19000	0.00430
85.20000	0.00432
85.21000	0.00435
85.22000	0.00437
85.23000	0.00440
85.24000	0.00443
85.25000	0.00446
85.26000	0.00448
85.27000	0.00451
85.28000	0.00454
85.29000	0.00457
85.30000	0.00459
85.31000	0.00462
85.32000	0.00465
85.33000	0.00468
85.34000	0.00471
85.35000	0.00474
85.36000	0.00477
85.37000	0.00480
85.38000	0.00483
85.39000	0.00487
85.40000	0.00490
85.41000	0.00493
85.42000	0.00496
85.43000	0.00500
85.44000	0.00503
85.45000	0.00506
85.46000	0.00510
85.47000	0.00513
85.48000	0.00517
85.49000	0.00520
85.50000	0.00524
85.51000	0.00527
85.52000	0.00531
85.53000	0.00535
85.54000	0.00538
85.55000	0.00542
85.56000	0.00546
85.57000	0.00550
85.58000	0.00554
85.59000	0.00558
85.60000	0.00562
85.61000	0.00566
85.62000	0.00570
85.63000	0.00574
85.64000	0.00578
85.65000	0.00583
85.66000	0.00587
85.67000	0.00591
85.68000	0.00596
85.69000	0.00600
85.70000	0.00605
85.71000	0.00609
85.72000	0.00614
85.73000	0.00619
85.74000	0.00623
85.75000	0.00628
85.76000	0.00633
85.77000	0.00638
85.78000	0.00643
85.79000	0.00648
85.80000	0.00653
85.81000	0.00658
85.82000	0.00664
85.83000	0.00669
85.84000	0.00675
85.85000	0.00680
85.86000	0.00686
85.87000	0.00691
85.88000	0.00697
85.89000	0.00703
85.90000	0.00709
85.91000	0.00715
85.92000	0.00721
85.93000	0.00727
85.94000	0.00733
85.95000	0.00739
85.96000	0.00746
85.97000	0.00752
85.98000	0.00759
85.99000	0.00765
86.00000	0.00772
86.01000	0.00779
86.02000	0.00786
86.03000	0.00793
86.04000	0.00800
86.05000	0.00807
86.06000	0.00815
86.07000	0.00822
86.08000	0.00830
86.09000	0.00838
86.10000	0.00845
86.11000	0.00853
86.12000	0.00861
86.13000	0.00869
86.14000	0.00878
86.15000	0.00886
86.16000	0.00895
86.17000	0.00903
86.18000	0.00912
86.19000	0.00921
86.20000	0.00930
86.21000	0.00940
86.22000	0.00949
86.23000	0.00959
86.24000	0.00968
86.25000	0.00978
86.26000	0.00988
86.27000	0.00998
86.28000	0.01009
86.29000	0.01019
86.30000	0.01030
86.31000	0.01041
86.32000	0.01052
86.33000	0.01063
86.34000	0.01075
86.35000	0.01086
86.36000	0.01098
86.37000	0.01110
86.38000	0.01122
86.39000	0.01135
86.40000	0.01148
86.41000	0.01161
86.42000	0.01174
86.43000	0.01187
86.44000	0.01201
86.45000	0.01215
86.46000	0.01229
86.47000	0.01243
86.48000	0.01258
86.49000	0.01273
86.50000	0.01288
86.51000	0.01304
86.52000	0.01319
86.53000	0.01336
86.54000	0.01352
86.55000	0.01369
86.56000	0.01386
86.57000	0.01403
86.58000	0.01421
86.59000	0.01439
86.60000	0.01458
86.61000	0.01477
86.62000	0.01496
86.63000	0.01515
86.64000	0.01535
86.65000	0.01556
86.66000	0.01577
86.67000	0.01598
86.68000	0.01620
86.69000	0.01642
86.70000	0.01665
86.71000	0.01688
86.72000	0.01712
86.73000	0.01736
86.74000	0.01761
86.75000	0.01786
86.76000	0.01812
86.77000	0.01839
86.78000	0.01866
86.79000	0.01894
86.80000	0.01922
86.81000	0.01951
86.82000	0.01981
86.83000	0.02012
86.84000	0.02043
86.85000	0.02075
86.86000	0.02108
86.87000	0.02141
86.88000	0.02176
86.89000	0.02211
86.90000	0.02247
86.91000	0.02284
86.92000	0.02322
86.93000	0.02362
86.94000	0.02402
86.95000	0.02443
86.96000	0.02485
86.97000	0.02528
86.98000	0.02573
86.99000	0.02619
87.00000	0.02666
87.01000	0.02714
87.02000	0.02764
87.03000	0.02815
87.04000	0.02868
87.05000	0.02922
87.06000	0.02978
87.07000	0.03036
87.08000	0.03095
87.09000	0.03156
87.10000	0.03219
87.11000	0.03284
87.12000	0.03351
87.13000	0.03420
87.14000	0.03491
87.15000	0.03565
87.16000	0.03641
87.17000	0.03719
87.18000	0.03800
87.19000	0.03884
87.20000	0.03971
87.21000	0.04061
87.22000	0.04154
87.23000	0.04250
87.24000	0.04350
87.25000	0.04454
87.26000	0.04561
87.27000	0.04672
87.28000	0.04788
87.29000	0.04908
87.30000	0.05032
87.31000	0.05162
87.32000	0.05297
87.33000	0.05437
87.34000	0.05583
87.35000	0.05736
87.36000	0.05894
87.37000	0.06063
87.38000	0.06236
87.39000	0.06416
87.40000	0.06605
87.41000	0.06802
87.42000	0.07009
87.43000	0.07225
87.44000	0.07452
87.45000	0.07689
87.46000	0.07939
87.47000	0.08201
87.48000	0.08477
87.49000	0.08768
87.50000	0.09074
87.51000	0.09396
87.52000	0.09737
87.53000	0.10097
87.54000	0.10477
87.55000	0.10880
87.56000	0.11308
87.57000	0.11762
87.58000	0.12244
87.59000	0.12757
87.60000	0.13304
87.61000	0.13884
87.62000	0.14508
87.63000	0.15176
87.64000	0.15893
87.65000	0.16662
87.66000	0.17490
87.67000	0.18383
87.68000	0.19347
87.69000	0.20391
87.70000	0.21523
87.71000	0.22755
87.72000	0.24097
87.73000	0.25564
87.74000	0.27172
87.75000	0.28939
87.76000	0.30887
87.77000	0.33041
87.78000	0.35433
87.79000	0.38098
87.80000	0.41080
87.81000	0.44433
87.82000	0.48224
87.83000	0.52539
87.84000	0.57490
87.85000	0.63231
87.86000	0.69968
87.87000	0.77991
87.88000	0.87696
87.89000	0.99624
87.90000	1.14490
87.91000	1.33209
87.92000	1.56894
87.93000	1.86830
87.94000	2.24395
87.95000	2.70933
87.96000	3.27554
87.97000	3.94830
87.98000	4.72290
87.99000	5.57603
88.00000	6.45361
88.01000	7.25923
88.02000	7.85782
88.03000	8.11480
88.04000	7.96378
88.05000	7.44875
88.06000	6.69575
88.07000	5.84490
88.08000	5.00274
88.09000	4.23223
88.10000	3.56274
88.11000	3.00278
88.12000	2.54922
88.13000	2.19290
88.14000	1.92224
88.15000	1.72548
88.16000	1.59233
88.17000	1.51498
88.18000	1.48853
88.19000	1.51107
88.20000	1.58328
88.21000	1.70765
88.22000	1.88756
88.23000	2.12580
88.24000	2.42282
88.25000	2.77376
88.26000	3.16405
88.27000	3.56320
88.28000	3.91967
88.29000	4.16502
88.30000	4.23596
88.31000	4.10750
88.32000	3.80870
88.33000	3.40411
88.34000	2.96064
88.35000	2.52716
88.36000	2.13158
88.37000	1.78629
88.38000	1.49415
88.39000	1.25265
88.40000	1.05647
88.41000	0.89903
88.42000	0.77353
88.43000	0.67354
88.44000	0.59347
88.45000	0.52868
88.46000	0.47552
88.47000	0.43121
88.48000	0.39369
88.49000	0.36148
88.50000	0.33347
88.51000	0.30889
88.52000	0.28712
88.53000	0.26773
88.54000	0.25036
88.55000	0.23472
88.56000	0.22058
88.57000	0.20775
88.58000	0.19607
88.59000	0.18540
88.60000	0.17562
88.61000	0.16664
88.62000	0.15837
88.63000	0.15074
88.64000	0.14367
88.65000	0.13711
88.66000	0.13101
88.67000	0.12534
88.68000	0.12004
88.69000	0.11509
88.70000	0.11045
88.71000	0.10610
88.72000	0.10202
88.73000	0.09818
88.74000	0.09456
88.75000	0.09114
88.76000	0.08792
88.77000	0.08487
88.78000	0.08199
88.79000	0.07926
88.80000	0.07666
88.81000	0.07420
88.82000	0.07186
88.83000	0.06963
88.84000	0.06751
88.85000	0.06549
88.86000	0.06356
88.87000	0.06172
88.88000	0.05997
88.89000	0.05828
88.90000	0.05668
88.91000	0.05514
88.92000	0.05366
88.93000	0.05224
88.94000	0.05089
88.95000	0.04958
88.96000	0.04833
88.97000	0.04713
88.98000	0.04597
88.99000	0.04486
89.00000	0.04379
89.01000	0.04276
89.02000	0.04176
89.03000	0.04080
89.04000	0.03988
89.05000	0.03899
89.06000	0.03812
89.07000	0.03729
89.08000	0.03649
89.09000	0.03571
89.10000	0.03496
89.11000	0.03423
89.12000	0.03353
89.13000	0.03285
89.14000	0.03219
89.15000	0.03155
89.16000	0.03093
89.17000	0.03033
89.18000	0.02975
89.19000	0.02918
89.20000	0.02863
89.21000	0.02810
89.22000	0.02758
89.23000	0.02708
89.24000	0.02659
89.25000	0.02612
89.26000	0.02566
89.27000	0.02521
89.28000	0.02477
89.29000	0.02435
89.30000	0.02394
89.31000	0.02354
89.32000	0.02315
89.33000	0.02276
89.34000	0.02239
89.35000	0.02203
89.36000	0.02168
89.37000	0.02134
89.38000	0.02100
89.39000	0.02068
89.40000	0.02036
89.41000	0.02005
89.42000	0.01974
89.43000	0.01945
89.44000	0.01916
89.45000	0.01888
89.46000	0.01860
89.47000	0.01833
89.48000	0.01807
89.49000	0.01781
89.50000	0.01756
89.51000	0.01732
89.52000	0.01708
89.53000	0.01684
89.54000	0.01661
89.55000	0.01639
89.56000	0.01617
89.57000	0.01596
89.58000	0.01575
89.59000	0.01554
89.60000	0.01534
89.61000	0.01514
89.62000	0.01495
89.63000	0.01476
89.64000	0.01458
89.65000	0.01440
89.66000	0.01422
89.67000	0.01405
89.68000	0.01388
89.69000	0.01371
89.70000	0.01355
89.71000	0.01339
89.72000	0.01323
89.73000	0.01308
89.74000	0.01292
89.75000	0.01278
89.76000	0.01263
89.77000	0.01249
89.78000	0.01235
89.79000	0.01221
89.80000	0.01208
89.81000	0.01195
89.82000	0.01182
89.83000	0.01169
89.84000	0.01156
89.85000	0.01144
89.86000	0.01132
89.87000	0.01120
89.88000	0.01109
89.89000	0.01097
89.90000	0.01086
89.91000	0.01075
89.92000	0.01064
89.93000	0.01054
89.94000	0.01043
89.95000	0.01033
89.96000	0.01023
89.97000	0.01013
89.98000	0.01004
89.99000	0.00994
90.00000	0.00985
